atomic number =   23
effective nuclear charge =   23
electron count =   25
net charge =   -2
basis set = approximate basis set limit (UGBS)      
exchange correlation functional = PW91                
cutoff radius (picometer) =  300
number of shells =   50
prepared by = Thomas A. Manz      
prepared date = 2012                
magnetization =    5
density in atomic units:
0.14602334E+04
0.64096115E+02
0.22786049E+02
0.68080192E+01
0.28949876E+01
0.20311317E+01
0.16519467E+01
0.12903022E+01
0.94168782E+00
0.66325235E+00
0.45059267E+00
0.30116984E+00
0.20700079E+00
0.14240566E+00
0.10012561E+00
0.71778215E-01
0.52642722E-01
0.40336244E-01
0.31602584E-01
0.25476463E-01
0.21060692E-01
0.17797526E-01
0.15348948E-01
0.13424450E-01
0.11885553E-01
0.10612258E-01
0.95599908E-02
0.86811082E-02
0.79036439E-02
0.72179548E-02
0.66140764E-02
0.60678618E-02
0.55780555E-02
0.51263883E-02
0.47135353E-02
0.43377466E-02
0.39930958E-02
0.36713320E-02
0.33682706E-02
0.30904470E-02
0.28349767E-02
0.25935781E-02
0.23721464E-02
0.21681637E-02
0.19779494E-02
0.18036629E-02
0.16417286E-02
0.14924799E-02
0.13551156E-02
0.12301049E-02
