atomic number =   24
effective nuclear charge =   24
electron count =   25
net charge =   -1
basis set = approximate basis set limit (UGBS)      
exchange correlation functional = PW91PW91            
cutoff radius (picometer) =  300
number of shells =   50
prepared by = Thomas A. Manz      
prepared date = July 2010           
magnetization =    5
density in atomic units:
0.16616443E+04
0.68861420E+02
0.22672579E+02
0.66848445E+01
0.32356467E+01
0.24258714E+01
0.19163213E+01
0.14326736E+01
0.10045638E+01
0.68506867E+00
0.45432714E+00
0.29861960E+00
0.20357983E+00
0.13978814E+00
0.98551199E-01
0.71047224E-01
0.52512199E-01
0.40491488E-01
0.31876184E-01
0.25700305E-01
0.21178512E-01
0.17756382E-01
0.15128005E-01
0.13036400E-01
0.11327400E-01
0.99078314E-02
0.87197898E-02
0.77295229E-02
0.68562087E-02
0.60904953E-02
0.54262308E-02
0.48353621E-02
0.43167397E-02
0.38512128E-02
0.34357542E-02
0.30695160E-02
0.27434682E-02
0.24491113E-02
0.21811735E-02
0.19440406E-02
0.17334679E-02
0.15414127E-02
0.13712937E-02
0.12199400E-02
0.10836131E-02
0.96287508E-03
0.85436815E-03
0.75759273E-03
0.67136553E-03
0.59526064E-03
