atomic number =   35
effective nuclear charge =   35
electron count =   33
net charge =    2
basis set = approximate basis set limit (UGBS)      
exchange correlation functional = PW91                
cutoff radius (picometer) =  300
number of shells =   50
prepared by = Thomas A. Manz      
prepared date = 2011                
magnetization =    3
density in atomic units:
0.54492183E+04
0.10332431E+03
0.27319220E+02
0.16635239E+02
0.10256867E+02
0.52343249E+01
0.25231581E+01
0.12806805E+01
0.68444520E+00
0.41259387E+00
0.27668414E+00
0.20207924E+00
0.15800479E+00
0.12510997E+00
0.99740669E-01
0.79025447E-01
0.62158864E-01
0.49237754E-01
0.38683243E-01
0.30328905E-01
0.23791842E-01
0.18664168E-01
0.14691573E-01
0.11578611E-01
0.91243740E-02
0.71943514E-02
0.56876042E-02
0.45294217E-02
0.35968034E-02
0.28559240E-02
0.22772280E-02
0.18158270E-02
0.14533902E-02
0.11630362E-02
0.93181105E-03
0.74990996E-03
0.60530473E-03
0.48851559E-03
0.39345332E-03
0.31810527E-03
0.25812536E-03
0.20896505E-03
0.16974172E-03
0.13825073E-03
0.11261053E-03
0.92019196E-04
0.75199292E-04
0.61505765E-04
0.50337974E-04
0.41296535E-04
