atomic number =   49
effective nuclear charge =   49
electron count =   49
net charge =    0
basis set = approximate basis set limit (UGBS)      
exchange correlation functional = PW91PW91            
cutoff radius (picometer) =  300
number of shells =   50
prepared by = Thomas A. Manz      
prepared date = July 2010           
magnetization =    1
density in atomic units:
0.16114956E+05
0.14219736E+03
0.58613384E+02
0.20560911E+02
0.70742707E+01
0.39586556E+01
0.30951970E+01
0.23832645E+01
0.16928530E+01
0.11508199E+01
0.75450742E+00
0.48918274E+00
0.32960850E+00
0.22403187E+00
0.15656741E+00
0.11189628E+00
0.81850521E-01
0.62293563E-01
0.48166767E-01
0.37935574E-01
0.30376684E-01
0.24624752E-01
0.20207183E-01
0.16715568E-01
0.13902153E-01
0.11612328E-01
0.97487411E-02
0.82451785E-02
0.69684885E-02
0.58965129E-02
0.50080600E-02
0.42559514E-02
0.36277703E-02
0.30927111E-02
0.26401877E-02
0.22610805E-02
0.19415010E-02
0.16675299E-02
0.14303676E-02
0.12308146E-02
0.10615984E-02
0.91434340E-03
0.78964315E-03
0.68315590E-03
0.59113523E-03
0.51266135E-03
0.44460539E-03
0.38581874E-03
0.33506984E-03
0.29157687E-03
