atomic number =   38
effective nuclear charge =   38
electron count =   35
net charge =    3
basis set = approximate basis set limit (UGBS)      
exchange correlation functional = PW91                
cutoff radius (picometer) =  300
number of shells =   50
prepared by = Thomas A. Manz      
prepared date = 2011                
magnetization =    1
density in atomic units:
0.70980703E+04
0.10864342E+03
0.33430973E+02
0.20251417E+02
0.10605762E+02
0.45753250E+01
0.20096676E+01
0.10688018E+01
0.68344051E+00
0.50784522E+00
0.39569122E+00
0.30767485E+00
0.23898028E+00
0.18042710E+00
0.13390887E+00
0.97112320E-01
0.69014095E-01
0.49209248E-01
0.34466948E-01
0.23932816E-01
0.16546097E-01
0.11383283E-01
0.78351684E-02
0.53798463E-02
0.36777724E-02
0.25057155E-02
0.17070719E-02
0.11727514E-02
0.79910341E-03
0.54255954E-03
0.36997951E-03
0.25173122E-03
0.17209994E-03
0.11753021E-03
0.80340273E-04
0.55318946E-04
0.38218772E-04
0.26373686E-04
0.18109755E-04
0.12497681E-04
0.86802484E-05
0.59971480E-05
0.41517492E-05
0.28838294E-05
0.19976690E-05
0.13869628E-05
0.95435416E-06
0.65507186E-06
0.44873576E-06
0.30697726E-06
