atomic number =   46
effective nuclear charge =   46
electron count =   47
net charge =   -1
basis set = approximate basis set limit (UGBS)      
exchange correlation functional = PW91PW91            
cutoff radius (picometer) =  300
number of shells =   50
prepared by = Thomas A. Manz      
prepared date = July 2010           
magnetization =    1
density in atomic units:
0.13136753E+05
0.12972787E+03
0.53393265E+02
0.22317059E+02
0.77913218E+01
0.33299606E+01
0.23097329E+01
0.18666717E+01
0.14505910E+01
0.10779822E+01
0.76604158E+00
0.53154892E+00
0.37625933E+00
0.26535341E+00
0.18995023E+00
0.13740826E+00
0.10067783E+00
0.76107159E-01
0.58091614E-01
0.44994477E-01
0.35374384E-01
0.28156146E-01
0.22718638E-01
0.18518429E-01
0.15214416E-01
0.12591788E-01
0.10503173E-01
0.88512618E-02
0.74710450E-02
0.63260016E-02
0.53862305E-02
0.45955181E-02
0.39375676E-02
0.33774024E-02
0.29023902E-02
0.25035634E-02
0.21650468E-02
0.18724224E-02
0.16172518E-02
0.14003605E-02
0.12149968E-02
0.10518924E-02
0.91235444E-03
0.79219782E-03
0.68726891E-03
0.59704983E-03
0.51824318E-03
0.44985767E-03
0.39049072E-03
0.33940902E-03
