atomic number =   32
effective nuclear charge =   32
electron count =   29
net charge =    3
basis set = approximate basis set limit (UGBS)      
exchange correlation functional = PW91                
cutoff radius (picometer) =  300
number of shells =   50
prepared by = Thomas A. Manz      
prepared date = 2012                
magnetization =    1
density in atomic units:
0.40883298E+04
0.96967186E+02
0.23522186E+02
0.12547202E+02
0.87493677E+01
0.52870374E+01
0.29552670E+01
0.16520491E+01
0.90745449E+00
0.51174033E+00
0.29312864E+00
0.17332453E+00
0.11080927E+00
0.72938368E-01
0.49861185E-01
0.34834329E-01
0.24693932E-01
0.18019533E-01
0.13155298E-01
0.96362410E-02
0.70761731E-02
0.51915143E-02
0.38150121E-02
0.27979726E-02
0.20436319E-02
0.14874206E-02
0.10816150E-02
0.79119758E-03
0.57409331E-03
0.41467638E-03
0.30005130E-03
0.21612864E-03
0.15583546E-03
0.11185325E-03
0.80056008E-04
0.57431716E-04
0.41168158E-04
0.29340525E-04
0.20722617E-04
0.14626144E-04
0.10336015E-04
0.72473699E-05
0.50806671E-05
0.35550663E-05
0.24686055E-05
0.16932712E-05
0.11569560E-05
0.78865691E-06
0.53255110E-06
0.35813105E-06
