atomic number =   25
effective nuclear charge =   25
electron count =   17
net charge =    8
basis set = approximate basis set limit (UGBS)      
exchange correlation functional = PW91                
cutoff radius (picometer) =  300
number of shells =   50
prepared by = Thomas A. Manz      
prepared date = 2011                
magnetization =    1
density in atomic units:
0.18886709E+04
0.73660179E+02
0.21555006E+02
0.58077517E+01
0.29676511E+01
0.22158604E+01
0.15788205E+01
0.10228254E+01
0.59984970E+00
0.33332816E+00
0.17407273E+00
0.86772554E-01
0.44390537E-01
0.22072906E-01
0.10978841E-01
0.54399753E-02
0.26815636E-02
0.13860612E-02
0.71540388E-03
0.37293835E-03
0.19638857E-03
0.10347527E-03
0.54672088E-04
0.28669940E-04
0.14745377E-04
0.73749179E-05
0.35581970E-05
0.17615354E-05
0.96141821E-06
0.63947351E-06
0.49502421E-06
0.41770068E-06
0.36866939E-06
0.33000137E-06
0.29812884E-06
0.26695585E-06
0.23441932E-06
0.20876561E-06
0.18557527E-06
0.16453433E-06
0.14472857E-06
0.12590677E-06
0.10785280E-06
0.93972325E-07
0.78829828E-07
0.67763125E-07
0.57258152E-07
0.48047244E-07
0.40417387E-07
0.33547039E-07
