atomic number =   54
effective nuclear charge =   54
electron count =   51
net charge =    3
basis set = approximate basis set limit (UGBS)      
exchange correlation functional = PW91                
cutoff radius (picometer) =  300
number of shells =   50
prepared by = Thomas A. Manz      
prepared date = 2012                
magnetization =    3
density in atomic units:
0.22078783E+05
0.16755620E+03
0.61735722E+02
0.17415085E+02
0.80034676E+01
0.58913012E+01
0.41438117E+01
0.26481404E+01
0.15702523E+01
0.92828631E+00
0.56028390E+00
0.35892403E+00
0.25397268E+00
0.18835679E+00
0.14513364E+00
0.11334572E+00
0.88665746E-01
0.69959767E-01
0.54539096E-01
0.42141505E-01
0.32309506E-01
0.24546394E-01
0.18548094E-01
0.13910095E-01
0.10341438E-01
0.76310146E-02
0.56083729E-02
0.41351216E-02
0.30198216E-02
0.21935047E-02
0.15954507E-02
0.11557551E-02
0.83868823E-03
0.60649926E-03
0.43790092E-03
0.31737291E-03
0.23026993E-03
0.16653660E-03
0.11966252E-03
0.86146567E-04
0.62091953E-04
0.44348875E-04
0.31651209E-04
0.22522996E-04
0.15899215E-04
0.11192135E-04
0.78175663E-05
0.54308962E-05
0.37703633E-05
0.26065875E-05
