atomic number =   25
effective nuclear charge =   25
electron count =   18
net charge =    7
basis set = approximate basis set limit (UGBS)      
exchange correlation functional = PW91                
cutoff radius (picometer) =  300
number of shells =   50
prepared by = Thomas A. Manz      
prepared date = 2011                
magnetization =    0
density in atomic units:
0.18884512E+04
0.74091301E+02
0.21588228E+02
0.58887334E+01
0.31355906E+01
0.24136491E+01
0.17570750E+01
0.11632255E+01
0.69956571E+00
0.39951855E+00
0.21494305E+00
0.11060289E+00
0.58292437E-01
0.29859014E-01
0.15271263E-01
0.77549610E-02
0.39021915E-02
0.20454223E-02
0.10650501E-02
0.55768515E-03
0.29424755E-03
0.15542928E-03
0.82594037E-04
0.43802043E-04
0.23007919E-04
0.11990825E-04
0.61940405E-05
0.32303401E-05
0.16390908E-05
0.80602950E-06
0.38924694E-06
0.19030517E-06
0.12663251E-06
0.69153927E-07
0.50498286E-07
0.33120688E-07
0.22953991E-07
0.16186680E-07
0.11328324E-07
0.81318499E-08
0.57090466E-08
0.38289301E-08
0.25371032E-08
0.16624282E-08
0.10446795E-08
0.67907457E-09
0.42377971E-09
0.26521721E-09
0.16965179E-09
0.10147087E-09
