atomic number =   40
effective nuclear charge =   40
electron count =   41
net charge =   -1
basis set = approximate basis set limit (UGBS)      
exchange correlation functional = PW91                
cutoff radius (picometer) =  300
number of shells =   50
prepared by = Thomas A. Manz      
prepared date = 2011                
magnetization =    3
density in atomic units:
0.83725752E+04
0.11249896E+03
0.38450951E+02
0.21934839E+02
0.10222091E+02
0.40306044E+01
0.18061283E+01
0.10979074E+01
0.80906898E+00
0.64266694E+00
0.50689781E+00
0.38744920E+00
0.29517588E+00
0.22036448E+00
0.16352543E+00
0.12015866E+00
0.88956028E-01
0.67181766E-01
0.51596269E-01
0.39787605E-01
0.31727642E-01
0.25675330E-01
0.21043180E-01
0.17838268E-01
0.15083608E-01
0.13164356E-01
0.11438628E-01
0.10142131E-01
0.90244161E-02
0.79991715E-02
0.71592289E-02
0.64150323E-02
0.57780757E-02
0.52060988E-02
0.46739466E-02
0.42305575E-02
0.38128423E-02
0.34297763E-02
0.30862258E-02
0.27725410E-02
0.25023648E-02
0.22485866E-02
0.20179290E-02
0.18139225E-02
0.16248836E-02
0.14570220E-02
0.13039757E-02
0.11673234E-02
0.10431245E-02
0.93321566E-03
