atomic number =   52
effective nuclear charge =   52
electron count =   50
net charge =    2
basis set = approximate basis set limit (UGBS)      
exchange correlation functional = PW91                
cutoff radius (picometer) =  300
number of shells =   50
prepared by = Thomas A. Manz      
prepared date = 2011                
magnetization =    2
density in atomic units:
0.19535467E+05
0.15688568E+03
0.61331902E+02
0.18512184E+02
0.72976890E+01
0.50704865E+01
0.38311734E+01
0.26564567E+01
0.16900773E+01
0.10440652E+01
0.63428146E+00
0.39164189E+00
0.25986555E+00
0.17872769E+00
0.12892061E+00
0.96130453E-01
0.73475443E-01
0.57943430E-01
0.45990683E-01
0.36749557E-01
0.29513875E-01
0.23751035E-01
0.19183485E-01
0.15510132E-01
0.12537626E-01
0.10136945E-01
0.82155550E-02
0.67032054E-02
0.54569338E-02
0.44445461E-02
0.36357481E-02
0.29760364E-02
0.24456203E-02
0.20105646E-02
0.16556043E-02
0.13693759E-02
0.11360216E-02
0.94267860E-03
0.78107859E-03
0.64947922E-03
0.54169464E-03
0.45086164E-03
0.37634722E-03
0.31479204E-03
0.26318643E-03
0.22057601E-03
0.18476418E-03
0.15482798E-03
0.12978383E-03
0.10899426E-03
