atomic number =   17
effective nuclear charge =   17
electron count =   12
net charge =    5
basis set = approximate basis set limit (UGBS)      
exchange correlation functional = PW91PW91            
cutoff radius (picometer) =  300
number of shells =   50
prepared by = Thomas A. Manz      
prepared date = July 2010           
magnetization =    0
density in atomic units:
0.61333264E+03
0.34039707E+02
0.17329245E+02
0.84269133E+01
0.36135345E+01
0.13821495E+01
0.57301211E+00
0.30023256E+00
0.19158046E+00
0.14108057E+00
0.10780220E+00
0.81704937E-01
0.61879501E-01
0.45595337E-01
0.33156440E-01
0.23697479E-01
0.16727647E-01
0.11963244E-01
0.84949713E-02
0.60481764E-02
0.43343701E-02
0.31227025E-02
0.22696271E-02
0.16573657E-02
0.12122907E-02
0.88766648E-03
0.65151165E-03
0.48185937E-03
0.35393331E-03
0.25887592E-03
0.18954916E-03
0.13808973E-03
0.10059367E-03
0.72894371E-04
0.52629242E-04
0.38042366E-04
0.27472235E-04
0.19752570E-04
0.14107885E-04
0.10113871E-04
0.72929274E-05
0.52531968E-05
0.38494572E-05
0.28576610E-05
0.21401333E-05
0.15997007E-05
0.11922818E-05
0.89210596E-06
0.67203405E-06
0.51230722E-06
