atomic number =   21
effective nuclear charge =   21
electron count =   21
net charge =    0
basis set = approximate basis set limit (UGBS)      
exchange correlation functional = PW91PW91            
cutoff radius (picometer) =  300
number of shells =   50
prepared by = Thomas A. Manz      
prepared date = July 2010           
magnetization =    1
density in atomic units:
0.11138602E+04
0.54148300E+02
0.22399982E+02
0.74435911E+01
0.26609910E+01
0.14335569E+01
0.11405586E+01
0.95917439E+00
0.76466990E+00
0.57980049E+00
0.41882181E+00
0.29206255E+00
0.20561661E+00
0.14285253E+00
0.99848047E-01
0.70056394E-01
0.49912225E-01
0.36896233E-01
0.27930606E-01
0.21671835E-01
0.17431116E-01
0.14385713E-01
0.12150188E-01
0.10509022E-01
0.91706496E-02
0.81214393E-02
0.72176880E-02
0.64723087E-02
0.58024060E-02
0.51938682E-02
0.46585887E-02
0.41711866E-02
0.37354308E-02
0.33366720E-02
0.29729074E-02
0.26509147E-02
0.23596815E-02
0.20948513E-02
0.18537015E-02
0.16394476E-02
0.14502755E-02
0.12778071E-02
0.11255011E-02
0.99102536E-03
0.87057543E-03
0.76485850E-03
0.67067641E-03
0.58758911E-03
0.51425357E-03
0.45033710E-03
