atomic number =   51
effective nuclear charge =   51
electron count =   50
net charge =    1
basis set = approximate basis set limit (UGBS)      
exchange correlation functional = PW91                
cutoff radius (picometer) =  300
number of shells =   50
prepared by = Thomas A. Manz      
prepared date = 2011                
magnetization =    2
density in atomic units:
0.18343871E+05
0.15178273E+03
0.60719551E+02
0.19172638E+02
0.71113315E+01
0.46710534E+01
0.36132696E+01
0.26021199E+01
0.17180481E+01
0.10944324E+01
0.67986441E+00
0.42444962E+00
0.28140032E+00
0.19178055E+00
0.13661152E+00
0.10072326E+00
0.76475076E-01
0.60293723E-01
0.48130341E-01
0.38882863E-01
0.31696733E-01
0.25968373E-01
0.21391293E-01
0.17660575E-01
0.14587292E-01
0.12054197E-01
0.99799819E-02
0.83091129E-02
0.68990351E-02
0.57256618E-02
0.47663674E-02
0.39663627E-02
0.33096692E-02
0.27602909E-02
0.23036576E-02
0.19293128E-02
0.16192453E-02
0.13586004E-02
0.11379750E-02
0.95606729E-03
0.80548553E-03
0.67717367E-03
0.57082827E-03
0.48215207E-03
0.40713439E-03
0.34463371E-03
0.29166849E-03
0.24702755E-03
0.20933399E-03
0.17772685E-03
