atomic number =   33
effective nuclear charge =   33
electron count =   29
net charge =    4
basis set = approximate basis set limit (UGBS)      
exchange correlation functional = PW91                
cutoff radius (picometer) =  300
number of shells =   50
prepared by = Thomas A. Manz      
prepared date = 2012                
magnetization =    1
density in atomic units:
0.45105840E+04
0.99288376E+02
0.24538628E+02
0.13884170E+02
0.93575315E+01
0.53611736E+01
0.28513322E+01
0.15281415E+01
0.80799234E+00
0.44181871E+00
0.24736895E+00
0.14414772E+00
0.91448456E-01
0.59824280E-01
0.40562432E-01
0.27970377E-01
0.19450286E-01
0.13856266E-01
0.98202499E-02
0.69511263E-02
0.49150623E-02
0.34605754E-02
0.24344635E-02
0.17049250E-02
0.11859428E-02
0.82012580E-03
0.56566228E-03
0.39239548E-03
0.26936940E-03
0.18377991E-03
0.12558857E-03
0.85356573E-04
0.58054284E-04
0.39282593E-04
0.26487387E-04
0.17907803E-04
0.12106771E-04
0.81381731E-05
0.54088891E-05
0.35855433E-05
0.23754321E-05
0.15564572E-05
0.10179288E-05
0.66422490E-06
0.42882286E-06
0.27549575E-06
0.17506547E-06
0.11019680E-06
0.68769040E-07
0.42672113E-07
