atomic number =   28
effective nuclear charge =   28
electron count =   27
net charge =    1
basis set = approximate basis set limit (UGBS)      
exchange correlation functional = PW91PW91            
cutoff radius (picometer) =  300
number of shells =   50
prepared by = Thomas A. Manz      
prepared date = July 2010           
magnetization =    1
density in atomic units:
0.26778931E+04
0.85204872E+02
0.21916710E+02
0.81514149E+01
0.57066293E+01
0.41369839E+01
0.27661641E+01
0.17864087E+01
0.11098574E+01
0.69136459E+00
0.42791742E+00
0.26750794E+00
0.17617646E+00
0.11739839E+00
0.80307513E-01
0.55838455E-01
0.39348330E-01
0.28683575E-01
0.21055967E-01
0.15675388E-01
0.11808584E-01
0.89896405E-02
0.69309571E-02
0.53834310E-02
0.42136563E-02
0.33148429E-02
0.26311174E-02
0.21116505E-02
0.16967220E-02
0.13689260E-02
0.11118761E-02
0.90577069E-03
0.74233813E-03
0.60985604E-03
0.50293986E-03
0.41717279E-03
0.34770928E-03
0.29032576E-03
0.24234447E-03
0.20323110E-03
0.17101716E-03
0.14373935E-03
0.12118559E-03
0.10242380E-03
0.86542655E-04
0.73279502E-04
0.62025072E-04
0.52533720E-04
0.44519871E-04
0.37784215E-04
