atomic number =   67
effective nuclear charge =   67
electron count =   68
net charge =   -1
basis set = approximate basis set limit (UGBS)      
exchange correlation functional = PW91                
cutoff radius (picometer) =  300
number of shells =   50
prepared by = Thomas A. Manz      
prepared date = 2011                
magnetization =    4
density in atomic units:
0.44393055E+05
0.23282451E+03
0.56389477E+02
0.25737984E+02
0.17302929E+02
0.92599916E+01
0.45819807E+01
0.24944735E+01
0.15074109E+01
0.10129253E+01
0.71669966E+00
0.51420450E+00
0.37744287E+00
0.27426565E+00
0.19839986E+00
0.14253786E+00
0.10159204E+00
0.73849492E-01
0.53601597E-01
0.39328080E-01
0.29393010E-01
0.22378517E-01
0.17477619E-01
0.14004578E-01
0.11487996E-01
0.96502518E-02
0.82971407E-02
0.72890073E-02
0.64883814E-02
0.58405632E-02
0.53142277E-02
0.48638247E-02
0.44777296E-02
0.41333302E-02
0.38234608E-02
0.35451083E-02
0.32916998E-02
0.30557942E-02
0.28336057E-02
0.26296692E-02
0.24405234E-02
0.22612368E-02
0.20960148E-02
0.19423774E-02
0.17982405E-02
0.16648255E-02
0.15396692E-02
0.14226882E-02
0.13139696E-02
0.12133608E-02
