atomic number =   19
effective nuclear charge =   19
electron count =   19
net charge =    0
basis set = approximate basis set limit (UGBS)      
exchange correlation functional = PW91PW91            
cutoff radius (picometer) =  300
number of shells =   50
prepared by = Thomas A. Manz      
prepared date = July 2010           
magnetization =    1
density in atomic units:
0.83375342E+03
0.44011436E+02
0.20733971E+02
0.82361794E+01
0.30230474E+01
0.12266314E+01
0.76611269E+00
0.63661820E+00
0.55100268E+00
0.46439281E+00
0.37312394E+00
0.28824115E+00
0.22088668E+00
0.16519061E+00
0.12248916E+00
0.89676999E-01
0.65049708E-01
0.47797550E-01
0.34894224E-01
0.25545556E-01
0.18844631E-01
0.14024490E-01
0.10594863E-01
0.81234137E-02
0.63285152E-02
0.50240597E-02
0.40779086E-02
0.33973118E-02
0.28788808E-02
0.24843113E-02
0.21839635E-02
0.19456494E-02
0.17551287E-02
0.15958187E-02
0.14603196E-02
0.13439382E-02
0.12411113E-02
0.11474161E-02
0.10604323E-02
0.98111189E-03
0.90812484E-03
0.83879154E-03
0.77469222E-03
0.71509380E-03
0.65904536E-03
0.60709193E-03
0.55831135E-03
0.51283446E-03
0.47051022E-03
0.43151696E-03
