atomic number =    7
effective nuclear charge =    7
electron count =    1
net charge =    6
basis set = approximate basis set limit (UGBS)      
exchange correlation functional = PW91PW91            
cutoff radius (picometer) =  300
number of shells =   50
prepared by = Thomas A. Manz      
prepared date = July 2010           
magnetization =    1
density in atomic units:
0.39257740E+02
0.82132053E+01
0.18829398E+01
0.42122644E+00
0.95246755E-01
0.19116914E-01
0.38562445E-02
0.86487009E-03
0.18361495E-03
0.38958249E-04
0.79279762E-05
0.14902535E-05
0.31282730E-06
0.14219262E-06
0.10867777E-06
0.56392309E-07
0.46882995E-07
0.31472133E-07
0.23688614E-07
0.17332496E-07
0.11900163E-07
0.80610434E-08
0.55835345E-08
0.35765850E-08
0.21219237E-08
0.14257032E-08
0.82645146E-09
0.44608725E-09
0.25834609E-09
0.13983464E-09
0.68837512E-10
0.40942878E-10
0.19747454E-10
0.95134378E-11
0.47711184E-11
0.21972450E-11
0.10576597E-11
0.54525557E-12
0.22910008E-12
0.98667344E-13
0.43121007E-13
0.18642321E-13
0.84734982E-14
0.37187148E-14
0.14157597E-14
0.59309575E-15
0.23379790E-15
0.83003578E-16
0.36174904E-16
0.13117498E-16
