atomic number =   24
effective nuclear charge =   24
electron count =   24
net charge =    0
basis set = approximate basis set limit (UGBS)      
exchange correlation functional = PW91PW91            
cutoff radius (picometer) =  300
number of shells =   50
prepared by = Thomas A. Manz      
prepared date = July 2010           
magnetization =    6
density in atomic units:
0.16614270E+04
0.68842361E+02
0.22676815E+02
0.66922197E+01
0.32386408E+01
0.24268365E+01
0.19181381E+01
0.14358644E+01
0.10085300E+01
0.68902057E+00
0.45772785E+00
0.30121714E+00
0.20537077E+00
0.14079565E+00
0.98877013E-01
0.70782661E-01
0.51758189E-01
0.39361633E-01
0.30443374E-01
0.24032358E-01
0.19334171E-01
0.15783917E-01
0.13066858E-01
0.10919482E-01
0.91828043E-02
0.77597331E-02
0.65896069E-02
0.56348173E-02
0.48130308E-02
0.41125985E-02
0.35239053E-02
0.30182747E-02
0.25904363E-02
0.22212826E-02
0.19050257E-02
0.16376805E-02
0.14096332E-02
0.12123195E-02
0.10403108E-02
0.89445355E-03
0.77023660E-03
0.66151674E-03
0.56908058E-03
0.49004809E-03
0.42157678E-03
0.36319098E-03
0.31263192E-03
0.26909291E-03
0.23162144E-03
0.19965079E-03
