atomic number =   35
effective nuclear charge =   35
electron count =   27
net charge =    8
basis set = approximate basis set limit (UGBS)      
exchange correlation functional = PW91                
cutoff radius (picometer) =  300
number of shells =   50
prepared by = Thomas A. Manz      
prepared date = 2011                
magnetization =    1
density in atomic units:
0.54426650E+04
0.10311052E+03
0.26951099E+02
0.16153423E+02
0.99095335E+01
0.49846940E+01
0.23122306E+01
0.10754638E+01
0.47729284E+00
0.21221593E+00
0.91637991E-01
0.38929723E-01
0.17601421E-01
0.78541236E-02
0.35389857E-02
0.15890738E-02
0.70150249E-03
0.32579139E-03
0.15046712E-03
0.70859605E-04
0.33958426E-04
0.16480568E-04
0.80494110E-05
0.38767398E-05
0.18265306E-05
0.81419307E-06
0.34394975E-06
0.13515978E-06
0.53774173E-07
0.30947710E-07
0.17110624E-07
0.95673043E-08
0.57415197E-08
0.40765489E-08
0.28132396E-08
0.16737507E-08
0.13004808E-08
0.90224633E-09
0.59621535E-09
0.40607320E-09
0.28549235E-09
0.19095951E-09
0.13223428E-09
0.80789077E-10
0.54651516E-10
0.35863160E-10
0.22945713E-10
0.14649499E-10
0.91224823E-11
0.52342466E-11
