atomic number =   24
effective nuclear charge =   24
electron count =   17
net charge =    7
basis set = approximate basis set limit (UGBS)      
exchange correlation functional = PW91PW91            
cutoff radius (picometer) =  300
number of shells =   50
prepared by = Thomas A. Manz      
prepared date = July 2010           
magnetization =    1
density in atomic units:
0.16654353E+04
0.69134987E+02
0.22140656E+02
0.60553179E+01
0.27192473E+01
0.19806360E+01
0.14973763E+01
0.10406482E+01
0.65651035E+00
0.39163515E+00
0.21957864E+00
0.11766219E+00
0.64391464E-01
0.34336537E-01
0.18337578E-01
0.97615086E-02
0.51762019E-02
0.28598623E-02
0.15751170E-02
0.87403209E-03
0.48924156E-03
0.27431230E-03
0.15466542E-03
0.87063803E-04
0.48629441E-04
0.26941734E-04
0.14811639E-04
0.81389380E-05
0.43504479E-05
0.22283252E-05
0.11430368E-05
0.68151274E-06
0.44287103E-06
0.34800641E-06
0.27783727E-06
0.22615561E-06
0.19137610E-06
0.16703319E-06
0.14510107E-06
0.12832466E-06
0.11307142E-06
0.98245174E-07
0.86386947E-07
0.75223014E-07
0.64804588E-07
0.56018880E-07
0.47508752E-07
0.40021785E-07
0.33730057E-07
0.27867937E-07
