atomic number =   50
effective nuclear charge =   50
electron count =   45
net charge =    5
basis set = approximate basis set limit (UGBS)      
exchange correlation functional = PW91                
cutoff radius (picometer) =  300
number of shells =   50
prepared by = Thomas A. Manz      
prepared date = 2011                
magnetization =    1
density in atomic units:
0.17198889E+05
0.14678908E+03
0.59738102E+02
0.19857941E+02
0.70085487E+01
0.42477622E+01
0.33204522E+01
0.24753926E+01
0.16799140E+01
0.10851933E+01
0.66575402E+00
0.39750293E+00
0.24290229E+00
0.14576218E+00
0.87783448E-01
0.52613676E-01
0.31236572E-01
0.19091144E-01
0.11544933E-01
0.70191803E-02
0.42741583E-02
0.26132585E-02
0.16150349E-02
0.10005304E-02
0.62516693E-03
0.39194582E-03
0.24961910E-03
0.16205921E-03
0.10530183E-03
0.68736270E-04
0.45155739E-04
0.29597579E-04
0.19401854E-04
0.12595983E-04
0.81095195E-05
0.51770139E-05
0.32296452E-05
0.19707250E-05
0.11585527E-05
0.67719043E-06
0.40902876E-06
0.25494390E-06
0.15902761E-06
0.92342326E-07
0.49865161E-07
0.31195739E-07
0.25835623E-07
0.22703677E-07
0.17325267E-07
0.12803882E-07
