atomic number =   34
effective nuclear charge =   34
electron count =   29
net charge =    5
basis set = approximate basis set limit (UGBS)      
exchange correlation functional = PW91                
cutoff radius (picometer) =  300
number of shells =   50
prepared by = Thomas A. Manz      
prepared date = 2012                
magnetization =    1
density in atomic units:
0.49628149E+04
0.10141763E+03
0.25814823E+02
0.15232589E+02
0.98539028E+01
0.53434734E+01
0.27005985E+01
0.13868968E+01
0.70673859E+00
0.37619337E+00
0.20724660E+00
0.11991648E+00
0.75862586E-01
0.49382888E-01
0.33120923E-01
0.22415740E-01
0.15177802E-01
0.10477198E-01
0.71549937E-02
0.48610880E-02
0.32901694E-02
0.22118697E-02
0.14832773E-02
0.98828017E-03
0.65260025E-03
0.42744115E-03
0.27870957E-03
0.18268426E-03
0.11815633E-03
0.75820113E-04
0.48694736E-04
0.31037111E-04
0.19795587E-04
0.12549475E-04
0.79187257E-05
0.50106696E-05
0.31702793E-05
0.20091964E-05
0.12507236E-05
0.78436477E-06
0.49066324E-06
0.30194752E-06
0.18563836E-06
0.11317965E-06
0.68418565E-07
0.41196859E-07
0.29744704E-07
0.19790866E-07
0.12662072E-07
0.82110310E-08
