atomic number =   35
effective nuclear charge =   35
electron count =   35
net charge =    0
basis set = approximate basis set limit (UGBS)      
exchange correlation functional = PW91PW91            
cutoff radius (picometer) =  300
number of shells =   50
prepared by = Thomas A. Manz      
prepared date = July 2010           
magnetization =    1
density in atomic units:
0.54485640E+04
0.10328652E+03
0.27317425E+02
0.16661539E+02
0.10268902E+02
0.52339306E+01
0.25235450E+01
0.12888756E+01
0.70206547E+00
0.43803069E+00
0.30764753E+00
0.23601747E+00
0.19266017E+00
0.15888204E+00
0.13149790E+00
0.10794551E+00
0.87798133E-01
0.71619876E-01
0.57817791E-01
0.46442144E-01
0.37203319E-01
0.29714420E-01
0.23740975E-01
0.18940851E-01
0.15077485E-01
0.11983966E-01
0.95344102E-02
0.76302257E-02
0.60826051E-02
0.48445892E-02
0.38720425E-02
0.30931162E-02
0.24790992E-02
0.19858479E-02
0.15921536E-02
0.12819793E-02
0.10349201E-02
0.83512737E-03
0.67241804E-03
0.54324209E-03
0.44030568E-03
0.35589637E-03
0.28856521E-03
0.23453937E-03
0.19052092E-03
0.15516035E-03
0.12630624E-03
0.10286888E-03
0.83822146E-04
0.68477428E-04
