atomic number =   19
effective nuclear charge =   19
electron count =   18
net charge =    1
basis set = approximate basis set limit (UGBS)      
exchange correlation functional = PW91PW91            
cutoff radius (picometer) =  300
number of shells =   50
prepared by = Thomas A. Manz      
prepared date = July 2010           
magnetization =    0
density in atomic units:
0.83362225E+03
0.44015747E+02
0.20729801E+02
0.82352018E+01
0.30230410E+01
0.12259860E+01
0.76501667E+00
0.63564366E+00
0.55051780E+00
0.46446127E+00
0.37362799E+00
0.28895402E+00
0.22157207E+00
0.16569073E+00
0.12270987E+00
0.89569971E-01
0.64619504E-01
0.47081884E-01
0.33928942E-01
0.24373697E-01
0.17510233E-01
0.12566362E-01
0.90480363E-02
0.65165022E-02
0.46856473E-02
0.33661544E-02
0.24225719E-02
0.17587242E-02
0.12695784E-02
0.91468444E-03
0.66198281E-03
0.47836051E-03
0.34706015E-03
0.25139152E-03
0.18214081E-03
0.13271165E-03
0.96947580E-04
0.70700728E-04
0.51310082E-04
0.37358306E-04
0.27271670E-04
0.19755793E-04
0.14321658E-04
0.10411134E-04
0.75443754E-05
0.54762322E-05
0.39550655E-05
0.28281991E-05
0.20081377E-05
0.14375842E-05
