atomic number =   50
effective nuclear charge =   50
electron count =   48
net charge =    2
basis set = approximate basis set limit (UGBS)      
exchange correlation functional = PW91                
cutoff radius (picometer) =  300
number of shells =   50
prepared by = Thomas A. Manz      
prepared date = 2011                
magnetization =    0
density in atomic units:
0.17205037E+05
0.14688904E+03
0.59804455E+02
0.19865715E+02
0.70335617E+01
0.42904506E+01
0.33624291E+01
0.25117707E+01
0.17235332E+01
0.11353014E+01
0.72366339E+00
0.45795864E+00
0.30282491E+00
0.20239437E+00
0.13916802E+00
0.97676374E-01
0.69869049E-01
0.51778682E-01
0.38713854E-01
0.29282717E-01
0.22374623E-01
0.17204469E-01
0.13330616E-01
0.10370528E-01
0.80812490E-02
0.63086180E-02
0.49419925E-02
0.39032421E-02
0.30742625E-02
0.24214252E-02
0.19155738E-02
0.15152735E-02
0.12030435E-02
0.95478148E-03
0.75851753E-03
0.60527865E-03
0.48432953E-03
0.38737655E-03
0.30907255E-03
0.24747464E-03
0.19877871E-03
0.15919001E-03
0.12789195E-03
0.10298715E-03
0.82869745E-04
0.66876288E-04
0.53920860E-04
0.43477590E-04
0.35068784E-04
0.28346953E-04
