atomic number =   33
effective nuclear charge =   33
electron count =   30
net charge =    3
basis set = approximate basis set limit (UGBS)      
exchange correlation functional = PW91                
cutoff radius (picometer) =  300
number of shells =   50
prepared by = Thomas A. Manz      
prepared date = 2012                
magnetization =    0
density in atomic units:
0.45137441E+04
0.99302589E+02
0.24496666E+02
0.13894421E+02
0.93628569E+01
0.53523421E+01
0.28449407E+01
0.15333449E+01
0.82550049E+00
0.46781522E+00
0.27753982E+00
0.17478879E+00
0.12022343E+00
0.85422516E-01
0.62526204E-01
0.46204802E-01
0.34200251E-01
0.25679635E-01
0.19102784E-01
0.14138509E-01
0.10422612E-01
0.76375813E-02
0.55840746E-02
0.40619825E-02
0.29349776E-02
0.21087008E-02
0.15112485E-02
0.10885576E-02
0.77680050E-03
0.55139064E-03
0.39194064E-03
0.27727781E-03
0.19635927E-03
0.13835961E-03
0.97207972E-04
0.68461566E-04
0.48199508E-04
0.33760021E-04
0.23417380E-04
0.16239710E-04
0.11225146E-04
0.76763718E-05
0.52452392E-05
0.35876567E-05
0.24378774E-05
0.16533841E-05
0.11081617E-05
0.73556384E-06
0.48400784E-06
0.31572441E-06
