atomic number =   46
effective nuclear charge =   46
electron count =   46
net charge =    0
basis set = approximate basis set limit (UGBS)      
exchange correlation functional = PW91PW91            
cutoff radius (picometer) =  300
number of shells =   50
prepared by = Thomas A. Manz      
prepared date = July 2010           
magnetization =    0
density in atomic units:
0.13135600E+05
0.12976187E+03
0.53389584E+02
0.22316641E+02
0.77897658E+01
0.33263795E+01
0.23092325E+01
0.18709188E+01
0.14583745E+01
0.10870248E+01
0.77441764E+00
0.53812975E+00
0.38076431E+00
0.26777917E+00
0.19058366E+00
0.13656540E+00
0.98695278E-01
0.73328681E-01
0.54749474E-01
0.41292936E-01
0.31479105E-01
0.24193399E-01
0.18784981E-01
0.14685818E-01
0.11535934E-01
0.91039836E-02
0.72283228E-02
0.57971058E-02
0.46472577E-02
0.37329886E-02
0.30162178E-02
0.24411930E-02
0.19859669E-02
0.16179415E-02
0.13216932E-02
0.10858198E-02
0.89573202E-03
0.73980534E-03
0.61066845E-03
0.50630706E-03
0.42138359E-03
0.35012860E-03
0.29191797E-03
0.24398064E-03
0.20389512E-03
0.17087509E-03
0.14319463E-03
0.12010476E-03
0.10083406E-03
0.84866006E-04
