atomic number =   48
effective nuclear charge =   48
electron count =   48
net charge =    0
basis set = approximate basis set limit (UGBS)      
exchange correlation functional = PW91PW91            
cutoff radius (picometer) =  300
number of shells =   50
prepared by = Thomas A. Manz      
prepared date = July 2010           
magnetization =    0
density in atomic units:
0.15074990E+05
0.13776663E+03
0.57131618E+02
0.21222948E+02
0.72205386E+01
0.36785235E+01
0.28202105E+01
0.22272806E+01
0.16363312E+01
0.11484678E+01
0.77487010E+00
0.51456010E+00
0.35253415E+00
0.24226275E+00
0.17012149E+00
0.12141754E+00
0.88187128E-01
0.66362254E-01
0.50546546E-01
0.39120365E-01
0.30739730E-01
0.24433903E-01
0.19659514E-01
0.15947578E-01
0.13007024E-01
0.10658206E-01
0.87801255E-02
0.72916481E-02
0.60493154E-02
0.50229812E-02
0.41869748E-02
0.34908603E-02
0.29192287E-02
0.24405376E-02
0.20421259E-02
0.17146771E-02
0.14428418E-02
0.12137596E-02
0.10191540E-02
0.85811556E-03
0.72427251E-03
0.60982676E-03
0.51468884E-03
0.43506396E-03
0.36746444E-03
0.31096605E-03
0.26294249E-03
0.22237943E-03
0.18808634E-03
0.15935978E-03
