atomic number =   39
effective nuclear charge =   39
electron count =   35
net charge =    4
basis set = approximate basis set limit (UGBS)      
exchange correlation functional = PW91                
cutoff radius (picometer) =  300
number of shells =   50
prepared by = Thomas A. Manz      
prepared date = 2011                
magnetization =    1
density in atomic units:
0.77175171E+04
0.11045233E+03
0.35833889E+02
0.21161507E+02
0.10459817E+02
0.42979388E+01
0.18806621E+01
0.10517209E+01
0.71402872E+00
0.54341894E+00
0.41851950E+00
0.31491289E+00
0.23495901E+00
0.16945980E+00
0.11990684E+00
0.82744829E-01
0.55838194E-01
0.37873831E-01
0.25193427E-01
0.16609013E-01
0.10908472E-01
0.71344846E-02
0.46761297E-02
0.30624117E-02
0.19993344E-02
0.13028813E-02
0.85017376E-03
0.56063826E-03
0.36664453E-03
0.23881164E-03
0.15633508E-03
0.10203991E-03
0.66880079E-04
0.43715110E-04
0.28541197E-04
0.18775847E-04
0.12377278E-04
0.81456928E-05
0.53367526E-05
0.35015214E-05
0.23467740E-05
0.15770677E-05
0.10676085E-05
0.72341106E-06
0.48952830E-06
0.33061053E-06
0.22285693E-06
0.14954858E-06
0.99640985E-07
0.66639814E-07
