atomic number =   36
effective nuclear charge =   36
electron count =   36
net charge =    0
basis set = approximate basis set limit (UGBS)      
exchange correlation functional = PW91PW91            
cutoff radius (picometer) =  300
number of shells =   50
prepared by = Thomas A. Manz      
prepared date = July 2010           
magnetization =    0
density in atomic units:
0.59642412E+04
0.10510141E+03
0.29135744E+02
0.17975710E+02
0.10521328E+02
0.50625854E+01
0.23421535E+01
0.11900995E+01
0.67606139E+00
0.45380458E+00
0.34159252E+00
0.27323812E+00
0.22608662E+00
0.18594472E+00
0.15206307E+00
0.12268206E+00
0.97789921E-01
0.78159861E-01
0.61775114E-01
0.48581727E-01
0.38122673E-01
0.29840998E-01
0.23383772E-01
0.18307572E-01
0.14306491E-01
0.11167842E-01
0.87297810E-02
0.68698805E-02
0.53849192E-02
0.42177793E-02
0.33169449E-02
0.26073405E-02
0.20572792E-02
0.16224305E-02
0.12808103E-02
0.10158395E-02
0.80801785E-03
0.64234895E-03
0.50938252E-03
0.40536313E-03
0.32364414E-03
0.25753884E-03
0.20554720E-03
0.16441112E-03
0.13133364E-03
0.10514828E-03
0.84116633E-04
0.67321846E-04
0.53893582E-04
0.43243603E-04
