atomic number =   35
effective nuclear charge =   35
electron count =   30
net charge =    5
basis set = approximate basis set limit (UGBS)      
exchange correlation functional = PW91                
cutoff radius (picometer) =  300
number of shells =   50
prepared by = Thomas A. Manz      
prepared date = 2011                
magnetization =    0
density in atomic units:
0.54504702E+04
0.10339550E+03
0.27317904E+02
0.16580301E+02
0.10232762E+02
0.52351103E+01
0.25208335E+01
0.12615234E+01
0.64621460E+00
0.35965469E+00
0.21476951E+00
0.13710983E+00
0.94568469E-01
0.66223241E-01
0.47010764E-01
0.33288267E-01
0.23451699E-01
0.16791094E-01
0.11940731E-01
0.85032806E-02
0.60831625E-02
0.43659490E-02
0.31558960E-02
0.22896226E-02
0.16632732E-02
0.12101339E-02
0.88364142E-03
0.65154309E-03
0.47822637E-03
0.35053669E-03
0.25806422E-03
0.18965482E-03
0.13985373E-03
0.10290294E-03
0.75633470E-04
0.55809658E-04
0.41237749E-04
0.30388950E-04
0.22242390E-04
0.16318021E-04
0.12037326E-04
0.88376974E-05
0.65102308E-05
0.48003653E-05
0.35192518E-05
0.25843249E-05
0.18959868E-05
0.13883241E-05
0.10142950E-05
0.74218508E-06
