atomic number =   51
effective nuclear charge =   51
electron count =   46
net charge =    5
basis set = approximate basis set limit (UGBS)      
exchange correlation functional = PW91                
cutoff radius (picometer) =  300
number of shells =   50
prepared by = Thomas A. Manz      
prepared date = 2012                
magnetization =    0
density in atomic units:
0.18335533E+05
0.15186287E+03
0.60662632E+02
0.19165653E+02
0.70758934E+01
0.46443009E+01
0.36210067E+01
0.26284442E+01
0.17402450E+01
0.10986516E+01
0.66221213E+00
0.38851222E+00
0.23425548E+00
0.13892198E+00
0.82610346E-01
0.48798971E-01
0.28583894E-01
0.17197125E-01
0.10233031E-01
0.60790014E-02
0.36135653E-02
0.21409611E-02
0.12717817E-02
0.75424009E-03
0.44543724E-03
0.26263707E-03
0.15526473E-03
0.93070114E-04
0.55255859E-04
0.32578762E-04
0.19235971E-04
0.11231784E-04
0.65089694E-05
0.37013392E-05
0.20690693E-05
0.11494139E-05
0.63388768E-06
0.34331998E-06
0.18123674E-06
0.95299825E-07
0.49621530E-07
0.25377025E-07
0.12896638E-07
0.65680781E-08
0.33250616E-08
0.16970648E-08
0.85845742E-09
0.43494902E-09
0.22330701E-09
0.11514397E-09
