atomic number =    7
effective nuclear charge =    7
electron count =   10
net charge =   -3
basis set = approximate basis set limit (UGBS)      
exchange correlation functional = PW91PW91            
cutoff radius (picometer) =  300
number of shells =   50
prepared by = Thomas A. Manz      
prepared date = July 2010           
magnetization =    0
density in atomic units:
0.74235367E+02
0.16352974E+02
0.42981114E+01
0.14136938E+01
0.73511040E+00
0.53712994E+00
0.44709688E+00
0.37747839E+00
0.31192398E+00
0.25477180E+00
0.20468155E+00
0.16322678E+00
0.13216369E+00
0.10678972E+00
0.86959198E-01
0.71008608E-01
0.58220863E-01
0.48464019E-01
0.40401883E-01
0.33843070E-01
0.28494984E-01
0.24072755E-01
0.20427175E-01
0.17365299E-01
0.14766349E-01
0.12554706E-01
0.10684490E-01
0.91270795E-02
0.77689146E-02
0.66013639E-02
0.56161378E-02
0.47700061E-02
0.40558935E-02
0.34431561E-02
0.29219687E-02
0.24855577E-02
0.21172934E-02
0.18024172E-02
0.15315254E-02
0.13050210E-02
0.11148903E-02
0.95088163E-03
0.81332319E-03
0.69720362E-03
0.59784105E-03
0.51397725E-03
0.44207289E-03
0.38068520E-03
0.32821504E-03
0.28367914E-03
