atomic number =   51
effective nuclear charge =   51
electron count =   51
net charge =    0
basis set = approximate basis set limit (UGBS)      
exchange correlation functional = PW91PW91            
cutoff radius (picometer) =  300
number of shells =   50
prepared by = Thomas A. Manz      
prepared date = July 2010           
magnetization =    3
density in atomic units:
0.18343273E+05
0.15177666E+03
0.60726330E+02
0.19173185E+02
0.71144452E+01
0.46749296E+01
0.36145930E+01
0.26008844E+01
0.17156793E+01
0.10925198E+01
0.67945844E+00
0.42598182E+00
0.28471670E+00
0.19667417E+00
0.14271012E+00
0.10766169E+00
0.83902642E-01
0.67886733E-01
0.55647716E-01
0.46130922E-01
0.38537681E-01
0.32308392E-01
0.27180862E-01
0.22877619E-01
0.19229963E-01
0.16139353E-01
0.13543116E-01
0.11401590E-01
0.95562302E-02
0.79907300E-02
0.66889781E-02
0.55876062E-02
0.46723112E-02
0.38989403E-02
0.32515624E-02
0.27175623E-02
0.22737884E-02
0.19001780E-02
0.15836328E-02
0.13230066E-02
0.11077244E-02
0.92490675E-03
0.77414268E-03
0.64908725E-03
0.54389081E-03
0.45677461E-03
0.38344052E-03
0.32205731E-03
0.27064761E-03
0.22792262E-03
