atomic number =   26
effective nuclear charge =   26
electron count =   26
net charge =    0
basis set = approximate basis set limit (UGBS)      
exchange correlation functional = PW91PW91            
cutoff radius (picometer) =  300
number of shells =   50
prepared by = Thomas A. Manz      
prepared date = May 2010            
net magnetization =    4
density in atomic units:
0.21260525E+04
0.77674561E+02
0.22177694E+02
0.69866266E+01
0.42879386E+01
0.32834780E+01
0.23832493E+01
0.16378982E+01
0.10684342E+01
0.68827021E+00
0.43734342E+00
0.27900821E+00
0.18734302E+00
0.12799309E+00
0.90426289E-01
0.65592311E-01
0.48882186E-01
0.37906233E-01
0.29916288E-01
0.24022289E-01
0.19613786E-01
0.16187763E-01
0.13496350E-01
0.11334668E-01
0.95464299E-02
0.80700032E-02
0.68397983E-02
0.58323611E-02
0.49625672E-02
0.42201271E-02
0.35972220E-02
0.30639842E-02
0.26149447E-02
0.22294901E-02
0.19007237E-02
0.16247558E-02
0.13905609E-02
0.11890930E-02
0.10147060E-02
0.86765364E-03
0.74337813E-03
0.63529931E-03
0.54386881E-03
0.46624683E-03
0.39933392E-03
0.34253253E-03
0.29359714E-03
0.25169028E-03
0.21573121E-03
0.18523903E-03
