atomic number =   87
effective nuclear charge =   87
electron count =   87
net charge =    0
basis set = approximate basis set limit (UGBS)      
exchange correlation functional = PW91PW91            
cutoff radius (picometer) =  300
number of shells =   50
prepared by = Thomas A. Manz      
prepared date = July 2010           
magnetization =    1
density in atomic units:
0.10138571E+06
0.29617282E+03
0.98630379E+02
0.45329418E+02
0.16487774E+02
0.73771777E+01
0.46538205E+01
0.31366537E+01
0.20066721E+01
0.12646910E+01
0.79882556E+00
0.52511072E+00
0.37564585E+00
0.28064415E+00
0.21845187E+00
0.17342946E+00
0.13886920E+00
0.11270809E+00
0.90943240E-01
0.73130876E-01
0.58657032E-01
0.46875987E-01
0.37447516E-01
0.29859452E-01
0.23757350E-01
0.18888857E-01
0.15056198E-01
0.12102343E-01
0.97256722E-02
0.78454819E-02
0.63860202E-02
0.52301525E-02
0.43278979E-02
0.36089004E-02
0.30376175E-02
0.25876877E-02
0.22276705E-02
0.19334293E-02
0.16893909E-02
0.14906508E-02
0.13266398E-02
0.11860799E-02
0.10678687E-02
0.96680276E-03
0.87833975E-03
0.80136769E-03
0.73273852E-03
0.67145884E-03
0.61630795E-03
0.56685816E-03
