atomic number =   87
effective nuclear charge =   87
electron count =   88
net charge =   -1
basis set = approximate basis set limit (UGBS)      
exchange correlation functional = PW91                
cutoff radius (picometer) =  300
number of shells =   50
prepared by = Thomas A. Manz      
prepared date = 2011                
magnetization =    0
density in atomic units:
0.10138614E+06
0.29617352E+03
0.98630241E+02
0.45329414E+02
0.16488241E+02
0.73772955E+01
0.46534753E+01
0.31363854E+01
0.20067267E+01
0.12650256E+01
0.79925382E+00
0.52548891E+00
0.37587729E+00
0.28069443E+00
0.21833976E+00
0.17319466E+00
0.13856725E+00
0.11239169E+00
0.90654403E-01
0.72904073E-01
0.58505472E-01
0.46811543E-01
0.37468437E-01
0.29960223E-01
0.23930201E-01
0.19125344E-01
0.15346609E-01
0.12436260E-01
0.10096600E-01
0.82472088E-02
0.68128626E-02
0.56783934E-02
0.47938623E-02
0.40899334E-02
0.35314036E-02
0.30920831E-02
0.27409750E-02
0.24539242E-02
0.22155829E-02
0.20208703E-02
0.18591338E-02
0.17192533E-02
0.15999174E-02
0.14962521E-02
0.14035658E-02
0.13208712E-02
0.12448903E-02
0.11749577E-02
0.11097882E-02
0.10491866E-02
