atomic number =   27
effective nuclear charge =   27
electron count =   21
net charge =    6
basis set = approximate basis set limit (UGBS)      
exchange correlation functional = PW91                
cutoff radius (picometer) =  300
number of shells =   50
prepared by = Thomas A. Manz      
prepared date = 2011                
magnetization =    3
density in atomic units:
0.23944988E+04
0.81860107E+02
0.21309645E+02
0.69290509E+01
0.45922661E+01
0.33732374E+01
0.22348969E+01
0.13822966E+01
0.79413474E+00
0.44332063E+00
0.23799278E+00
0.12502618E+00
0.68627782E-01
0.37448842E-01
0.20859558E-01
0.11806938E-01
0.67947344E-02
0.41352776E-02
0.25590907E-02
0.16259294E-02
0.10568342E-02
0.69870026E-03
0.47027133E-03
0.31927068E-03
0.21832272E-03
0.14970936E-03
0.10346063E-03
0.72444389E-04
0.50598315E-04
0.35340272E-04
0.24873760E-04
0.17483158E-04
0.12357214E-04
0.87243998E-05
0.61571618E-05
0.43702748E-05
0.31255715E-05
0.22004715E-05
0.15767520E-05
0.11494054E-05
0.85378610E-06
0.63006109E-06
0.47262938E-06
0.35797356E-06
0.26968263E-06
0.20478252E-06
0.15567561E-06
0.11854606E-06
0.90451209E-07
0.69145848E-07
