atomic number =    7
effective nuclear charge =    7
electron count =    4
net charge =    3
basis set = approximate basis set limit (UGBS)      
exchange correlation functional = PW91PW91            
cutoff radius (picometer) =  300
number of shells =   50
prepared by = Thomas A. Manz      
prepared date = July 2010           
magnetization =    0
density in atomic units:
0.75787148E+02
0.16294903E+02
0.39211664E+01
0.10306062E+01
0.40993461E+00
0.27169189E+00
0.22614789E+00
0.18839066E+00
0.14890108E+00
0.11342461E+00
0.83118856E-01
0.59511416E-01
0.43202747E-01
0.31038808E-01
0.22401636E-01
0.16127558E-01
0.11589278E-01
0.84797377E-02
0.61763325E-02
0.45072986E-02
0.33020417E-02
0.24236199E-02
0.17881285E-02
0.13218400E-02
0.97700465E-03
0.72234642E-03
0.53547125E-03
0.40043058E-03
0.29802384E-03
0.22154681E-03
0.16541590E-03
0.12334013E-03
0.92287031E-04
0.68910413E-04
0.51420589E-04
0.38533504E-04
0.28918996E-04
0.21647307E-04
0.16094504E-04
0.12011647E-04
0.90142730E-05
0.67368178E-05
0.50394387E-05
0.37696364E-05
0.28165912E-05
0.21062933E-05
0.15580475E-05
0.11590653E-05
0.86027279E-06
0.63920925E-06
