atomic number =   17
effective nuclear charge =   17
electron count =   10
net charge =    7
basis set = approximate basis set limit (UGBS)      
exchange correlation functional = PW91PW91            
cutoff radius (picometer) =  300
number of shells =   50
prepared by = Thomas A. Manz      
prepared date = July 2010           
magnetization =    0
density in atomic units:
0.60910114E+03
0.33932144E+02
0.17041285E+02
0.83201628E+01
0.35956266E+01
0.13440338E+01
0.48690733E+00
0.18356287E+00
0.66194750E-01
0.23832165E-01
0.82702860E-02
0.27641852E-02
0.99207927E-03
0.34614414E-03
0.11989668E-03
0.40515628E-04
0.12932322E-04
0.42812317E-05
0.13992271E-05
0.46730241E-06
0.16441015E-06
0.61296056E-07
0.25038210E-07
0.10589017E-07
0.48457531E-08
0.23815254E-08
0.12091258E-08
0.55788502E-09
0.25274460E-09
0.11287807E-09
0.48475370E-10
0.20127284E-10
0.81205537E-11
0.31562812E-11
0.11790949E-11
0.44107239E-12
0.15903513E-12
0.55770811E-13
0.18749220E-13
0.60023668E-14
0.19077198E-14
0.57137465E-15
0.16991914E-15
0.49742470E-16
0.13735423E-16
0.37868101E-17
0.96231980E-18
0.24221547E-18
0.60093398E-19
0.14122099E-19
