atomic number =   32
effective nuclear charge =   32
electron count =   28
net charge =    4
basis set = approximate basis set limit (UGBS)      
exchange correlation functional = PW91PW91            
cutoff radius (picometer) =  300
number of shells =   50
prepared by = Thomas A. Manz      
prepared date = July 2010           
magnetization =    0
density in atomic units:
0.40853167E+04
0.96941467E+02
0.23570553E+02
0.12542397E+02
0.87436876E+01
0.52955551E+01
0.29645019E+01
0.16519388E+01
0.89534563E+00
0.49004191E+00
0.26560536E+00
0.14384860E+00
0.82229823E-01
0.46962894E-01
0.27262114E-01
0.15901666E-01
0.92912568E-02
0.56310673E-02
0.34084790E-02
0.20795651E-02
0.12808797E-02
0.79315383E-03
0.49610093E-03
0.31215727E-03
0.19713090E-03
0.12523397E-03
0.80327161E-04
0.52465337E-04
0.34171102E-04
0.22291244E-04
0.14665575E-04
0.96085014E-05
0.63196467E-05
0.41279518E-05
0.26571404E-05
0.17155581E-05
0.11211391E-05
0.73480288E-06
0.47841337E-06
0.31356254E-06
0.20619845E-06
0.13515974E-06
0.89351417E-07
0.59247501E-07
0.39283044E-07
0.25993948E-07
0.17261796E-07
0.11328752E-07
0.74501250E-08
0.48850755E-08
