atomic number =   29
effective nuclear charge =   29
electron count =   29
net charge =    0
basis set = approximate basis set limit (UGBS)      
exchange correlation functional = PW91PW91            
cutoff radius (picometer) =  300
number of shells =   50
prepared by = Thomas A. Manz      
prepared date = July 2010           
magnetization =    1
density in atomic units:
0.29909846E+04
0.88541878E+02
0.21973003E+02
0.90215635E+01
0.64888425E+01
0.45269842E+01
0.29048495E+01
0.18193161E+01
0.11068561E+01
0.68132883E+00
0.42108887E+00
0.26540685E+00
0.17794861E+00
0.12196695E+00
0.86510099E-01
0.62837906E-01
0.46627577E-01
0.35837427E-01
0.27871292E-01
0.21988001E-01
0.17571069E-01
0.14172261E-01
0.11544236E-01
0.94626993E-02
0.77870935E-02
0.64300690E-02
0.53324597E-02
0.44546407E-02
0.37161924E-02
0.31016401E-02
0.25980535E-02
0.21763677E-02
0.18284331E-02
0.15356742E-02
0.12909074E-02
0.10888908E-02
0.92042657E-03
0.77784294E-03
0.65617869E-03
0.55507524E-03
0.47064413E-03
0.39810824E-03
0.33753799E-03
0.28662101E-03
0.24320043E-03
0.20673437E-03
0.17562117E-03
0.14918504E-03
0.12675543E-03
0.10786533E-03
