atomic number =   36
effective nuclear charge =   36
electron count =   37
net charge =   -1
basis set = approximate basis set limit (UGBS)      
exchange correlation functional = PW91                
cutoff radius (picometer) =  300
number of shells =   50
prepared by = Thomas A. Manz      
prepared date = 2011                
magnetization =    1
density in atomic units:
0.59642822E+04
0.10510180E+03
0.29135599E+02
0.17975721E+02
0.10521269E+02
0.50625687E+01
0.23422334E+01
0.11902260E+01
0.67616391E+00
0.45385271E+00
0.34156349E+00
0.27313390E+00
0.22592667E+00
0.18574800E+00
0.15185043E+00
0.12247622E+00
0.97608015E-01
0.78013502E-01
0.61672173E-01
0.48524622E-01
0.38110878E-01
0.29871047E-01
0.23451598E-01
0.18409131E-01
0.14437164E-01
0.11322771E-01
0.89051072E-02
0.70614205E-02
0.55903811E-02
0.44349353E-02
0.35433872E-02
0.28419786E-02
0.22984096E-02
0.18697970E-02
0.15334460E-02
0.12731054E-02
0.10696441E-02
0.90839679E-03
0.77960029E-03
0.67980366E-03
0.60196250E-03
0.53985318E-03
0.49180817E-03
0.45436187E-03
0.42502678E-03
0.40236954E-03
0.38470954E-03
0.37088280E-03
0.36019282E-03
0.35166778E-03
