atomic number =   34
effective nuclear charge =   34
electron count =   28
net charge =    6
basis set = approximate basis set limit (UGBS)      
exchange correlation functional = PW91                
cutoff radius (picometer) =  300
number of shells =   50
prepared by = Thomas A. Manz      
prepared date = 2012                
magnetization =    0
density in atomic units:
0.49577476E+04
0.10140513E+03
0.25856853E+02
0.15203537E+02
0.98434706E+01
0.53527989E+01
0.27002947E+01
0.13663572E+01
0.66898644E+00
0.32972735E+00
0.15971644E+00
0.76598190E-01
0.38910218E-01
0.19585166E-01
0.99505000E-02
0.50345398E-02
0.25181521E-02
0.13067067E-02
0.67001407E-03
0.34344220E-03
0.17621911E-03
0.89692105E-04
0.45414461E-04
0.22745711E-04
0.11125176E-04
0.53192243E-05
0.25033173E-05
0.11939768E-05
0.55716868E-06
0.25744288E-06
0.11963725E-06
0.54552249E-07
0.24040553E-07
0.11181863E-07
0.65323986E-08
0.34770655E-08
0.18810944E-08
0.10893313E-08
0.64860001E-09
0.38515188E-09
0.23127884E-09
0.14400336E-09
0.92539469E-10
0.59264114E-10
0.37195264E-10
0.23053578E-10
0.14614018E-10
0.86743338E-11
0.55939394E-11
0.34137810E-11
