atomic number =   67
effective nuclear charge =   67
electron count =   64
net charge =    3
basis set = approximate basis set limit (UGBS)      
exchange correlation functional = PW91                
cutoff radius (picometer) =  300
number of shells =   50
prepared by = Thomas A. Manz      
prepared date = 2011                
magnetization =    4
density in atomic units:
0.44392781E+05
0.23293486E+03
0.56282082E+02
0.25730047E+02
0.17242001E+02
0.91781397E+01
0.45085969E+01
0.24459126E+01
0.14808809E+01
0.99651861E+00
0.70524281E+00
0.50327146E+00
0.36551774E+00
0.26134503E+00
0.18479539E+00
0.12880652E+00
0.88157050E-01
0.60989384E-01
0.41502293E-01
0.28065654E-01
0.18960765E-01
0.12749470E-01
0.85868081E-02
0.57819961E-02
0.38756030E-02
0.25914642E-02
0.17345361E-02
0.11705878E-02
0.78407157E-03
0.52223314E-03
0.34950391E-03
0.23266302E-03
0.15548528E-03
0.10354624E-03
0.68780049E-04
0.46018176E-04
0.30839765E-04
0.20571961E-04
0.13616682E-04
0.90266085E-05
0.59875497E-05
0.39153942E-05
0.25664899E-05
0.16931690E-05
0.11123543E-05
0.73432869E-06
0.48152521E-06
0.31365096E-06
0.20490305E-06
0.13227135E-06
