atomic number =   32
effective nuclear charge =   32
electron count =   33
net charge =   -1
basis set = approximate basis set limit (UGBS)      
exchange correlation functional = PW91                
cutoff radius (picometer) =  300
number of shells =   50
prepared by = Thomas A. Manz      
prepared date = 2012                
magnetization =    3
density in atomic units:
0.40895876E+04
0.96960892E+02
0.23464336E+02
0.12549523E+02
0.87539625E+01
0.52766700E+01
0.29413464E+01
0.16451488E+01
0.91191393E+00
0.52712196E+00
0.31742194E+00
0.20367938E+00
0.14437172E+00
0.10782795E+00
0.84629185E-01
0.68431102E-01
0.56426369E-01
0.47571141E-01
0.40274337E-01
0.34255486E-01
0.29244674E-01
0.25010202E-01
0.21452917E-01
0.18421676E-01
0.15819892E-01
0.13589632E-01
0.11693197E-01
0.10107513E-01
0.87190028E-02
0.75199162E-02
0.65009291E-02
0.56184079E-02
0.48653637E-02
0.42102840E-02
0.36441928E-02
0.31614213E-02
0.27460600E-02
0.23832098E-02
0.20640288E-02
0.17905469E-02
0.15555659E-02
0.13478957E-02
0.11696336E-02
0.10157160E-02
0.88103785E-03
0.76506485E-03
0.66367630E-03
0.57560648E-03
0.49909658E-03
0.43321986E-03
