atomic number =   27
effective nuclear charge =   27
electron count =   24
net charge =    3
basis set = approximate basis set limit (UGBS)      
exchange correlation functional = PW91                
cutoff radius (picometer) =  300
number of shells =   50
prepared by = Thomas A. Manz      
prepared date = 2011                
magnetization =    4
density in atomic units:
0.23907058E+04
0.81638718E+02
0.21880495E+02
0.74038596E+01
0.49178467E+01
0.36673665E+01
0.25230141E+01
0.16463141E+01
0.10212362E+01
0.62331808E+00
0.37290877E+00
0.22073178E+00
0.13655041E+00
0.84600724E-01
0.53381860E-01
0.34016181E-01
0.22023348E-01
0.14808132E-01
0.10096162E-01
0.69607566E-02
0.49177888E-02
0.35186079E-02
0.25532488E-02
0.18920872E-02
0.14058131E-02
0.10654811E-02
0.81007485E-03
0.62826090E-03
0.48807691E-03
0.37882739E-03
0.29706827E-03
0.23324434E-03
0.18443445E-03
0.14594021E-03
0.11528005E-03
0.92048096E-04
0.73364215E-04
0.58396192E-04
0.46464353E-04
0.36988644E-04
0.29670187E-04
0.23674071E-04
0.18876946E-04
0.15115508E-04
0.12036860E-04
0.95924433E-05
0.76172651E-05
0.60544526E-05
0.48092065E-05
0.38747512E-05
