atomic number =   30
effective nuclear charge =   30
electron count =   31
net charge =   -1
basis set = approximate basis set limit (UGBS)      
exchange correlation functional = PW91PW91            
cutoff radius (picometer) =  300
number of shells =   50
prepared by = Thomas A. Manz      
prepared date = July 2010           
magnetization =    1
density in atomic units:
0.33303157E+04
0.91627342E+02
0.22224710E+02
0.10064994E+02
0.72806783E+01
0.48530021E+01
0.29742827E+01
0.17954774E+01
0.10591323E+01
0.63701445E+00
0.38782644E+00
0.24319640E+00
0.16396707E+00
0.11415590E+00
0.82935661E-01
0.62138371E-01
0.47801528E-01
0.38117118E-01
0.30813085E-01
0.25277330E-01
0.20996850E-01
0.17601710E-01
0.14897224E-01
0.12685623E-01
0.10856293E-01
0.93265586E-02
0.80572367E-02
0.70108483E-02
0.61048465E-02
0.53314357E-02
0.46763527E-02
0.41101142E-02
0.36255179E-02
0.32022279E-02
0.28360952E-02
0.25181174E-02
0.22434141E-02
0.20007731E-02
0.17825677E-02
0.15933089E-02
0.14252075E-02
0.12739575E-02
0.11415667E-02
0.10234016E-02
0.91805123E-03
0.82430866E-03
0.73992833E-03
0.66390715E-03
0.59602445E-03
0.53541642E-03
