atomic number =   73
effective nuclear charge =   73
electron count =   74
net charge =   -1
basis set = approximate basis set limit (UGBS)      
exchange correlation functional = PW91                
cutoff radius (picometer) =  300
number of shells =   50
prepared by = Thomas A. Manz      
prepared date = 2012                
magnetization =    4
density in atomic units:
0.58474785E+05
0.25598586E+03
0.61806499E+02
0.35305752E+02
0.20155951E+02
0.91577940E+01
0.43148355E+01
0.24377711E+01
0.15466058E+01
0.10609013E+01
0.73797911E+00
0.51158834E+00
0.36370537E+00
0.25759265E+00
0.18457848E+00
0.13319832E+00
0.97804211E-01
0.74246198E-01
0.57529617E-01
0.45290973E-01
0.36677066E-01
0.30183932E-01
0.25194019E-01
0.21451347E-01
0.18307449E-01
0.15866363E-01
0.13756101E-01
0.12063383E-01
0.10583120E-01
0.92685362E-02
0.81582023E-02
0.71806083E-02
0.63384515E-02
0.55916361E-02
0.49245306E-02
0.43559354E-02
0.38477918E-02
0.33935800E-02
0.29889732E-02
0.26327961E-02
0.23249919E-02
0.20457748E-02
0.18002028E-02
0.15855961E-02
0.13933768E-02
0.12256533E-02
0.10764647E-02
0.94534142E-03
0.82937977E-03
0.72845025E-03
