atomic number =   53
effective nuclear charge =   53
electron count =   54
net charge =   -1
basis set = approximate basis set limit (UGBS)      
exchange correlation functional = PW91PW91            
cutoff radius (picometer) =  300
number of shells =   50
prepared by = Thomas A. Manz      
prepared date = July 2010           
magnetization =    0
density in atomic units:
0.20777537E+05
0.16215491E+03
0.61686413E+02
0.17919861E+02
0.76118493E+01
0.54973483E+01
0.40146508E+01
0.26672468E+01
0.16329225E+01
0.98427492E+00
0.59726512E+00
0.38072473E+00
0.26835883E+00
0.20056695E+00
0.15834741E+00
0.12896864E+00
0.10686031E+00
0.90109341E-01
0.75914934E-01
0.63933305E-01
0.53802084E-01
0.45174897E-01
0.37922494E-01
0.31772722E-01
0.26551431E-01
0.22143122E-01
0.18465210E-01
0.15458620E-01
0.12891540E-01
0.10735368E-01
0.89588976E-02
0.74682175E-02
0.62377774E-02
0.52040811E-02
0.43420293E-02
0.36329052E-02
0.30444479E-02
0.25490038E-02
0.21289065E-02
0.17821972E-02
0.14950453E-02
0.12504786E-02
0.10481003E-02
0.87966752E-03
0.73750637E-03
0.61939302E-03
0.51969255E-03
0.43608621E-03
0.36593707E-03
0.30759868E-03
