atomic number =   25
effective nuclear charge =   25
electron count =   24
net charge =    1
basis set = approximate basis set limit (UGBS)      
exchange correlation functional = PW91                
cutoff radius (picometer) =  300
number of shells =   50
prepared by = Thomas A. Manz      
prepared date = 2011                
magnetization =    6
density in atomic units:
0.18833368E+04
0.73441589E+02
0.22434103E+02
0.67264175E+01
0.37032397E+01
0.28462837E+01
0.21555936E+01
0.15383943E+01
0.10329300E+01
0.67841518E+00
0.43500230E+00
0.27739200E+00
0.18440282E+00
0.12362462E+00
0.85150361E-01
0.59901357E-01
0.43080829E-01
0.32255538E-01
0.24534715E-01
0.19020874E-01
0.15003554E-01
0.11988334E-01
0.97015183E-02
0.79155257E-02
0.64930608E-02
0.53493846E-02
0.44290796E-02
0.36955280E-02
0.30801098E-02
0.25693420E-02
0.21515230E-02
0.18022680E-02
0.15144398E-02
0.12726195E-02
0.10705766E-02
0.90399198E-03
0.76516549E-03
0.64765546E-03
0.54736139E-03
0.46398741E-03
0.39434023E-03
0.33447103E-03
0.28441506E-03
0.24225643E-03
0.20625036E-03
0.17597097E-03
0.15005629E-03
0.12799939E-03
0.10920418E-03
0.93339848E-04
