atomic number =   57
effective nuclear charge =   57
electron count =   58
net charge =   -1
basis set = approximate basis set limit (UGBS)      
exchange correlation functional = PW91                
cutoff radius (picometer) =  300
number of shells =   50
prepared by = Thomas A. Manz      
prepared date = 2012                
magnetization =    2
density in atomic units:
0.26311436E+05
0.18424898E+03
0.60541405E+02
0.16695721E+02
0.97024069E+01
0.69381948E+01
0.42600207E+01
0.24284008E+01
0.13504376E+01
0.81204522E+00
0.54189605E+00
0.39970347E+00
0.31800506E+00
0.25613469E+00
0.20663412E+00
0.16461848E+00
0.12950315E+00
0.10216875E+00
0.79795025E-01
0.62153433E-01
0.48581187E-01
0.38144909E-01
0.30243034E-01
0.24245601E-01
0.19627132E-01
0.16115218E-01
0.13418944E-01
0.11390750E-01
0.97708711E-02
0.84748976E-02
0.74510491E-02
0.66102939E-02
0.59217387E-02
0.53359643E-02
0.48317327E-02
0.44023264E-02
0.40235040E-02
0.36825933E-02
0.33720713E-02
0.30930275E-02
0.28423371E-02
0.26078459E-02
0.23941502E-02
0.21987499E-02
0.20166619E-02
0.18500687E-02
0.16949946E-02
0.15518222E-02
0.14192777E-02
0.12980134E-02
