atomic number =   21
effective nuclear charge =   21
electron count =   18
net charge =    3
basis set = approximate basis set limit (UGBS)      
exchange correlation functional = PW91                
cutoff radius (picometer) =  300
number of shells =   50
prepared by = Thomas A. Manz      
prepared date = 2011                
magnetization =    0
density in atomic units:
0.11138651E+04
0.54314587E+02
0.22385365E+02
0.73819914E+01
0.26089923E+01
0.13966284E+01
0.11123793E+01
0.93485034E+00
0.73923457E+00
0.55386937E+00
0.39192441E+00
0.26590484E+00
0.18059270E+00
0.11934252E+00
0.78201175E-01
0.50450195E-01
0.32069042E-01
0.20699946E-01
0.13164269E-01
0.83323745E-02
0.52717146E-02
0.33285362E-02
0.21100938E-02
0.13381918E-02
0.84657897E-03
0.53485506E-03
0.33853282E-03
0.21670900E-03
0.13739811E-03
0.86651678E-04
0.54849967E-04
0.34474451E-04
0.21696969E-04
0.13591139E-04
0.84856174E-05
0.53347680E-05
0.33436891E-05
0.20759805E-05
0.13000250E-05
0.81928744E-06
0.52152643E-06
0.32975797E-06
0.21021808E-06
0.13438267E-06
0.85906258E-07
0.54789261E-07
0.35032468E-07
0.22213568E-07
0.14007097E-07
0.88965404E-08
