atomic number =   52
effective nuclear charge =   52
electron count =   45
net charge =    7
basis set = approximate basis set limit (UGBS)      
exchange correlation functional = PW91                
cutoff radius (picometer) =  300
number of shells =   50
prepared by = Thomas A. Manz      
prepared date = 2011                
magnetization =    1
density in atomic units:
0.19526510E+05
0.15669318E+03
0.61235237E+02
0.18490437E+02
0.72204227E+01
0.49731278E+01
0.37491994E+01
0.25859463E+01
0.16148404E+01
0.95944571E+00
0.54066998E+00
0.29497060E+00
0.16548353E+00
0.90796530E-01
0.49824573E-01
0.27107205E-01
0.14570012E-01
0.80953632E-02
0.44495636E-02
0.24531514E-02
0.13568903E-02
0.75094949E-03
0.41851273E-03
0.23338647E-03
0.13042576E-03
0.73182477E-04
0.41640498E-04
0.24322571E-04
0.14208083E-04
0.83482510E-05
0.49354690E-05
0.28622649E-05
0.16374980E-05
0.90411567E-06
0.49994122E-06
0.25841018E-06
0.17215972E-06
0.12239600E-06
0.87549488E-07
0.56880157E-07
0.37981870E-07
0.30219713E-07
0.20838050E-07
0.13988846E-07
0.88290744E-08
0.59142788E-08
0.38172048E-08
0.23687685E-08
0.14877527E-08
0.97154518E-09
