atomic number =   50
effective nuclear charge =   50
electron count =   54
net charge =   -4
basis set = approximate basis set limit (UGBS)      
exchange correlation functional = PW91                
cutoff radius (picometer) =  300
number of shells =   50
prepared by = Thomas A. Manz      
prepared date = 2011                
magnetization =    0
density in atomic units:
0.17202529E+05
0.14687288E+03
0.59814804E+02
0.19866201E+02
0.70357671E+01
0.42955408E+01
0.33655882E+01
0.25106249E+01
0.17186840E+01
0.11289164E+01
0.71801019E+00
0.45473757E+00
0.30276707E+00
0.20587127E+00
0.14599472E+00
0.10748908E+00
0.82128666E-01
0.65797038E-01
0.53981002E-01
0.45306005E-01
0.38742073E-01
0.33589840E-01
0.29487580E-01
0.26116928E-01
0.23287470E-01
0.20885255E-01
0.18839112E-01
0.17108114E-01
0.15559354E-01
0.14180832E-01
0.12963078E-01
0.11858410E-01
0.10864236E-01
0.99468557E-02
0.91023194E-02
0.83320998E-02
0.76227500E-02
0.69585098E-02
0.63319444E-02
0.57569784E-02
0.52286433E-02
0.47303541E-02
0.42745387E-02
0.38570659E-02
0.34706022E-02
0.31192563E-02
0.27959871E-02
0.25014707E-02
0.22337313E-02
0.19934361E-02
