atomic number =   17
effective nuclear charge =   17
electron count =   17
net charge =    0
basis set = approximate basis set limit (UGBS)      
exchange correlation functional = PW91PW91            
cutoff radius (picometer) =  300
number of shells =   50
prepared by = Thomas A. Manz      
prepared date = July 2010           
magnetization =    1
density in atomic units:
0.61255658E+03
0.34813061E+02
0.17597961E+02
0.84867697E+01
0.36315079E+01
0.14235889E+01
0.65384126E+00
0.41343829E+00
0.32594925E+00
0.28395924E+00
0.24874112E+00
0.21306132E+00
0.18007134E+00
0.14842439E+00
0.12067348E+00
0.96510962E-01
0.76217920E-01
0.60423840E-01
0.47411609E-01
0.37063327E-01
0.28945863E-01
0.22576213E-01
0.17647022E-01
0.13794621E-01
0.10772659E-01
0.84097497E-02
0.65788892E-02
0.51838844E-02
0.40709171E-02
0.31959203E-02
0.25198977E-02
0.19868794E-02
0.15728173E-02
0.12448314E-02
0.98653114E-03
0.78567327E-03
0.62764232E-03
0.50128333E-03
0.39942865E-03
0.31946035E-03
0.25636156E-03
0.20509728E-03
0.16457235E-03
0.13231847E-03
0.10626778E-03
0.85586347E-04
0.68859459E-04
0.55424658E-04
0.44626056E-04
0.36006815E-04
