atomic number =   50
effective nuclear charge =   50
electron count =   51
net charge =   -1
basis set = approximate basis set limit (UGBS)      
exchange correlation functional = PW91                
cutoff radius (picometer) =  300
number of shells =   50
prepared by = Thomas A. Manz      
prepared date = 2011                
magnetization =    3
density in atomic units:
0.17203555E+05
0.14687256E+03
0.59815216E+02
0.19866379E+02
0.70368395E+01
0.42958364E+01
0.33648839E+01
0.25099254E+01
0.17187356E+01
0.11299238E+01
0.71977347E+00
0.45681402E+00
0.30470759E+00
0.20734209E+00
0.14679649E+00
0.10752123E+00
0.81387863E-01
0.64372852E-01
0.51931612E-01
0.42711865E-01
0.35680290E-01
0.30125726E-01
0.25682343E-01
0.22021877E-01
0.18948078E-01
0.16346913E-01
0.14147511E-01
0.12309399E-01
0.10695285E-01
0.92943888E-02
0.80963532E-02
0.70505128E-02
0.61510191E-02
0.53620827E-02
0.46745981E-02
0.40838150E-02
0.35711415E-02
0.31198135E-02
0.27196154E-02
0.23741135E-02
0.20751432E-02
0.18089823E-02
0.15788698E-02
0.13788403E-02
0.12026415E-02
0.10499734E-02
0.91559102E-03
0.79816376E-03
0.69557922E-03
0.60674711E-03
