atomic number =   33
effective nuclear charge =   33
electron count =   35
net charge =   -2
basis set = approximate basis set limit (UGBS)      
exchange correlation functional = PW91                
cutoff radius (picometer) =  300
number of shells =   50
prepared by = Thomas A. Manz      
prepared date = 2011                
magnetization =    1
density in atomic units:
0.45119243E+04
0.99254929E+02
0.24474892E+02
0.13908552E+02
0.93731785E+01
0.53514247E+01
0.28389771E+01
0.15293033E+01
0.82780933E+00
0.47818035E+00
0.29620504E+00
0.20057906E+00
0.15100938E+00
0.11957003E+00
0.98397322E-01
0.82433127E-01
0.69696881E-01
0.59708711E-01
0.51112462E-01
0.43809727E-01
0.37615985E-01
0.32322716E-01
0.27844531E-01
0.24011403E-01
0.20710779E-01
0.17873796E-01
0.15454238E-01
0.13425282E-01
0.11641824E-01
0.10094956E-01
0.87747993E-02
0.76246103E-02
0.66375458E-02
0.57733827E-02
0.50214808E-02
0.43759230E-02
0.38164305E-02
0.33242516E-02
0.28881668E-02
0.25121847E-02
0.21870094E-02
0.18979290E-02
0.16483539E-02
0.14318537E-02
0.12416912E-02
0.10773735E-02
0.93334017E-03
0.80796779E-03
0.69894153E-03
0.60507201E-03
