atomic number =   17
effective nuclear charge =   17
electron count =   16
net charge =    1
basis set = approximate basis set limit (UGBS)      
exchange correlation functional = PW91PW91            
cutoff radius (picometer) =  300
number of shells =   50
prepared by = Thomas A. Manz      
prepared date = July 2010           
magnetization =    2
density in atomic units:
0.61267828E+03
0.34692215E+02
0.17554029E+02
0.84758158E+01
0.36284692E+01
0.14180405E+01
0.64254051E+00
0.39684141E+00
0.30526012E+00
0.26082879E+00
0.22468382E+00
0.18945073E+00
0.15784800E+00
0.12826499E+00
0.10287699E+00
0.81222557E-01
0.63376725E-01
0.49735785E-01
0.38677279E-01
0.30013992E-01
0.23305815E-01
0.18100854E-01
0.14109751E-01
0.11012263E-01
0.85955886E-02
0.67121172E-02
0.52559730E-02
0.41471464E-02
0.32622677E-02
0.25659513E-02
0.20271558E-02
0.16014877E-02
0.12701818E-02
0.10072881E-02
0.79983473E-03
0.63817657E-03
0.51081955E-03
0.40884793E-03
0.32649119E-03
0.26176980E-03
0.21060272E-03
0.16896437E-03
0.13595237E-03
0.10966484E-03
0.88448440E-04
0.71552247E-04
0.57844016E-04
0.46799367E-04
0.37901991E-04
0.30771858E-04
