atomic number =   49
effective nuclear charge =   49
electron count =   46
net charge =    3
basis set = approximate basis set limit (UGBS)      
exchange correlation functional = PW91PW91            
cutoff radius (picometer) =  300
number of shells =   50
prepared by = Thomas A. Manz      
prepared date = July 2010           
magnetization =    0
density in atomic units:
0.16109583E+05
0.14228175E+03
0.58584305E+02
0.20558823E+02
0.70602674E+01
0.39447863E+01
0.30998676E+01
0.24024382E+01
0.17152145E+01
0.11669757E+01
0.75970531E+00
0.48295411E+00
0.31451991E+00
0.20247047E+00
0.13116214E+00
0.84793501E-01
0.54689128E-01
0.36177281E-01
0.23805579E-01
0.15709534E-01
0.10421754E-01
0.69338093E-02
0.46497695E-02
0.31321361E-02
0.21148361E-02
0.14328805E-02
0.97707100E-03
0.67553343E-03
0.46535159E-03
0.32049516E-03
0.22208918E-03
0.15363748E-03
0.10670105E-03
0.73913470E-04
0.51172163E-04
0.35622390E-04
0.24870840E-04
0.17338643E-04
0.11999889E-04
0.83205741E-05
0.57820343E-05
0.39883967E-05
0.27439305E-05
0.18849518E-05
0.12926567E-05
0.89220919E-06
0.61150814E-06
0.41791247E-06
0.28485493E-06
0.19366668E-06
