atomic number =   47
effective nuclear charge =   47
electron count =   44
net charge =    3
basis set = approximate basis set limit (UGBS)      
exchange correlation functional = PW91PW91            
cutoff radius (picometer) =  300
number of shells =   50
prepared by = Thomas A. Manz      
prepared date = July 2010           
magnetization =    2
density in atomic units:
0.14081729E+05
0.13346004E+03
0.55341331E+02
0.21810343E+02
0.74611182E+01
0.34517863E+01
0.25243292E+01
0.20140996E+01
0.15034353E+01
0.10679028E+01
0.71855187E+00
0.47057787E+00
0.31342918E+00
0.20614484E+00
0.13702331E+00
0.91632582E-01
0.61416358E-01
0.42584281E-01
0.29553032E-01
0.20890146E-01
0.14892324E-01
0.10767029E-01
0.79259137E-02
0.58611264E-02
0.44017890E-02
0.33076422E-02
0.25268591E-02
0.19497919E-02
0.15065039E-02
0.11722781E-02
0.91654959E-03
0.71818702E-03
0.56505983E-03
0.44490502E-03
0.35188583E-03
0.27875355E-03
0.22234020E-03
0.17750441E-03
0.14120057E-03
0.11292976E-03
0.90338443E-04
0.72136703E-04
0.57830657E-04
0.46387464E-04
0.37188373E-04
0.29868937E-04
0.23977111E-04
0.19240457E-04
0.15443082E-04
0.12401293E-04
