atomic number =   50
effective nuclear charge =   50
electron count =   47
net charge =    3
basis set = approximate basis set limit (UGBS)      
exchange correlation functional = PW91                
cutoff radius (picometer) =  300
number of shells =   50
prepared by = Thomas A. Manz      
prepared date = 2011                
magnetization =    1
density in atomic units:
0.17201557E+05
0.14692511E+03
0.59788376E+02
0.19864254E+02
0.70243068E+01
0.42832432E+01
0.33660750E+01
0.25218914E+01
0.17330946E+01
0.11396523E+01
0.72121924E+00
0.44949397E+00
0.29040352E+00
0.18768327E+00
0.12366589E+00
0.82486093E-01
0.55713847E-01
0.39001118E-01
0.27508499E-01
0.19660220E-01
0.14242786E-01
0.10423685E-01
0.77255997E-02
0.57761976E-02
0.43462082E-02
0.32912544E-02
0.25129116E-02
0.19435623E-02
0.15042666E-02
0.11682508E-02
0.91428915E-03
0.71744196E-03
0.56651217E-03
0.44808511E-03
0.35540556E-03
0.28360766E-03
0.22718367E-03
0.18204647E-03
0.14560419E-03
0.11690456E-03
0.94160634E-04
0.75600699E-04
0.60874027E-04
0.49109567E-04
0.39548904E-04
0.31911393E-04
0.25713625E-04
0.20705100E-04
0.16652435E-04
0.13415759E-04
