atomic number =   52
effective nuclear charge =   52
electron count =   49
net charge =    3
basis set = approximate basis set limit (UGBS)      
exchange correlation functional = PW91                
cutoff radius (picometer) =  300
number of shells =   50
prepared by = Thomas A. Manz      
prepared date = 2011                
magnetization =    1
density in atomic units:
0.19536219E+05
0.15688828E+03
0.61322437E+02
0.18510954E+02
0.72917252E+01
0.50642886E+01
0.38294477E+01
0.26582599E+01
0.16926800E+01
0.10451028E+01
0.63248211E+00
0.38682538E+00
0.25265354E+00
0.16973239E+00
0.11886939E+00
0.85662425E-01
0.63109376E-01
0.48044797E-01
0.36811851E-01
0.28431388E-01
0.22108519E-01
0.17256470E-01
0.13547916E-01
0.10668811E-01
0.84161861E-02
0.66551534E-02
0.52874903E-02
0.42410595E-02
0.34007861E-02
0.27342504E-02
0.22131572E-02
0.17961703E-02
0.14664470E-02
0.11998862E-02
0.98501449E-03
0.81342843E-03
0.67455071E-03
0.56013640E-03
0.46491073E-03
0.38750502E-03
0.32417211E-03
0.27076947E-03
0.22693681E-03
0.19066925E-03
0.16016499E-03
0.13483787E-03
0.11350837E-03
0.95637726E-04
0.80620899E-04
0.68094181E-04
