atomic number =   68
effective nuclear charge =   68
electron count =   67
net charge =    1
basis set = approximate basis set limit (UGBS)      
exchange correlation functional = PW91                
cutoff radius (picometer) =  300
number of shells =   50
prepared by = Thomas A. Manz      
prepared date = 2011                
magnetization =    3
density in atomic units:
0.46563531E+05
0.23708362E+03
0.56749897E+02
0.27274744E+02
0.17948778E+02
0.93537016E+01
0.45810285E+01
0.25053120E+01
0.15245297E+01
0.10270765E+01
0.72422314E+00
0.51632971E+00
0.37613195E+00
0.27122840E+00
0.19474536E+00
0.13897187E+00
0.98266222E-01
0.70874505E-01
0.50922256E-01
0.36917098E-01
0.27153423E-01
0.20252908E-01
0.15418057E-01
0.11963670E-01
0.94480012E-02
0.75904783E-02
0.62150708E-02
0.51839910E-02
0.43646316E-02
0.37059947E-02
0.31777867E-02
0.27360371E-02
0.23689040E-02
0.20539244E-02
0.17826585E-02
0.15515095E-02
0.13515056E-02
0.11753449E-02
0.10192231E-02
0.88416430E-03
0.76711137E-03
0.66290959E-03
0.57278899E-03
0.49463171E-03
0.42593872E-03
0.36673385E-03
0.31497030E-03
0.27006961E-03
0.23124665E-03
0.19794911E-03
