atomic number =    7
effective nuclear charge =    7
electron count =    6
net charge =    1
basis set = approximate basis set limit (UGBS)      
exchange correlation functional = PW91PW91            
cutoff radius (picometer) =  300
number of shells =   50
prepared by = Thomas A. Manz      
prepared date = July 2010           
magnetization =    2
density in atomic units:
0.75019112E+02
0.16379419E+02
0.41826162E+01
0.12956665E+01
0.63813132E+00
0.45760071E+00
0.37690157E+00
0.31182730E+00
0.24931739E+00
0.19505067E+00
0.14848387E+00
0.11116119E+00
0.84283248E-01
0.63283138E-01
0.47650345E-01
0.35747327E-01
0.26751669E-01
0.20323316E-01
0.15372301E-01
0.11646412E-01
0.88553280E-02
0.67476272E-02
0.51690987E-02
0.39704954E-02
0.30532887E-02
0.23520770E-02
0.18191955E-02
0.14200727E-02
0.11063305E-02
0.86293434E-03
0.67697774E-03
0.53171301E-03
0.41980736E-03
0.33178573E-03
0.26276239E-03
0.20920980E-03
0.16716274E-03
0.13360247E-03
0.10653596E-03
0.85287451E-04
0.68514753E-04
0.54887354E-04
0.44092998E-04
0.35460649E-04
0.28452821E-04
0.22868608E-04
0.18337843E-04
0.14674846E-04
0.11716791E-04
0.93665594E-05
