atomic number =   29
effective nuclear charge =   29
electron count =   30
net charge =   -1
basis set = approximate basis set limit (UGBS)      
exchange correlation functional = PW91PW91            
cutoff radius (picometer) =  300
number of shells =   50
prepared by = Thomas A. Manz      
prepared date = July 2010           
magnetization =    0
density in atomic units:
0.29916082E+04
0.88558632E+02
0.21949518E+02
0.90111074E+01
0.64844141E+01
0.45194564E+01
0.28942680E+01
0.18086444E+01
0.10982358E+01
0.67560345E+00
0.41837925E+00
0.26526734E+00
0.17964755E+00
0.12500675E+00
0.90427510E-01
0.67291744E-01
0.51356912E-01
0.40649742E-01
0.32641642E-01
0.26629770E-01
0.22027316E-01
0.18406436E-01
0.15537195E-01
0.13202761E-01
0.11269589E-01
0.96550444E-02
0.83067659E-02
0.71915383E-02
0.62204986E-02
0.53829709E-02
0.46706237E-02
0.40515680E-02
0.35208962E-02
0.30570640E-02
0.26541855E-02
0.23088634E-02
0.20100637E-02
0.17479700E-02
0.15161785E-02
0.13167874E-02
0.11448996E-02
0.99244073E-03
0.86116412E-03
0.74759650E-03
0.64804335E-03
0.56223979E-03
0.48715435E-03
0.42193980E-03
0.36529780E-03
0.31656327E-03
