atomic number =   35
effective nuclear charge =   35
electron count =   31
net charge =    4
basis set = approximate basis set limit (UGBS)      
exchange correlation functional = PW91                
cutoff radius (picometer) =  300
number of shells =   50
prepared by = Thomas A. Manz      
prepared date = 2011                
magnetization =    1
density in atomic units:
0.54500151E+04
0.10336988E+03
0.27319006E+02
0.16600389E+02
0.10241176E+02
0.52346716E+01
0.25219803E+01
0.12691222E+01
0.66081619E+00
0.37940311E+00
0.23737738E+00
0.16033147E+00
0.11678636E+00
0.86418204E-01
0.64724833E-01
0.48345257E-01
0.35951424E-01
0.27098907E-01
0.20315539E-01
0.15261861E-01
0.11523736E-01
0.87400824E-02
0.66824555E-02
0.51364643E-02
0.39633308E-02
0.30704935E-02
0.23933304E-02
0.18854282E-02
0.14846247E-02
0.11717272E-02
0.93069160E-03
0.74065349E-03
0.59269118E-03
0.47496546E-03
0.38163396E-03
0.30839443E-03
0.25023677E-03
0.20327384E-03
0.16502151E-03
0.13459814E-03
0.11030186E-03
0.90313923E-04
0.74300093E-04
0.61352082E-04
0.50689778E-04
0.42025742E-04
0.34876615E-04
0.28979968E-04
0.24102024E-04
0.20108342E-04
