atomic number =   51
effective nuclear charge =   51
electron count =   49
net charge =    2
basis set = approximate basis set limit (UGBS)      
exchange correlation functional = PW91                
cutoff radius (picometer) =  300
number of shells =   50
prepared by = Thomas A. Manz      
prepared date = 2011                
magnetization =    1
density in atomic units:
0.18344473E+05
0.15178856E+03
0.60712334E+02
0.19172031E+02
0.71079326E+01
0.46668663E+01
0.36118577E+01
0.26034760E+01
0.17205573E+01
0.10963889E+01
0.68013966E+00
0.42261592E+00
0.27766529E+00
0.18641329E+00
0.13004303E+00
0.93369342E-01
0.68728887E-01
0.52489806E-01
0.40517118E-01
0.31643473E-01
0.24953006E-01
0.19793656E-01
0.15812954E-01
0.12680599E-01
0.10191428E-01
0.82089892E-02
0.66407174E-02
0.54164683E-02
0.44138227E-02
0.36033897E-02
0.29575417E-02
0.24315368E-02
0.20087364E-02
0.16617047E-02
0.13782310E-02
0.11488289E-02
0.96123060E-03
0.80513494E-03
0.67388121E-03
0.56636787E-03
0.47769767E-03
0.40240472E-03
0.34012026E-03
0.28820938E-03
0.24428725E-03
0.20763795E-03
0.17649747E-03
0.15019374E-03
0.12792330E-03
0.10923786E-03
