atomic number =   32
effective nuclear charge =   32
electron count =   32
net charge =    0
basis set = approximate basis set limit (UGBS)      
exchange correlation functional = PW91PW91            
cutoff radius (picometer) =  300
number of shells =   50
prepared by = Thomas A. Manz      
prepared date = July 2010           
magnetization =    2
density in atomic units:
0.40898562E+04
0.96965500E+02
0.23465570E+02
0.12549533E+02
0.87538176E+01
0.52766118E+01
0.29417477E+01
0.16459783E+01
0.91290730E+00
0.52797025E+00
0.31785429E+00
0.20353906E+00
0.14364178E+00
0.10650533E+00
0.82775861E-01
0.66117890E-01
0.53741932E-01
0.44621795E-01
0.37137799E-01
0.31009529E-01
0.25954667E-01
0.21732336E-01
0.18232033E-01
0.15291058E-01
0.12809280E-01
0.10718137E-01
0.89756576E-02
0.75482801E-02
0.63259974E-02
0.52961833E-02
0.44436092E-02
0.37248463E-02
0.31285975E-02
0.26252011E-02
0.22036058E-02
0.18550964E-02
0.15647520E-02
0.13192042E-02
0.11100719E-02
0.93677628E-03
0.79256779E-03
0.66919246E-03
0.56655338E-03
0.48059263E-03
0.40756896E-03
0.34646568E-03
0.29448775E-03
0.25048683E-03
0.21320551E-03
0.18183621E-03
