atomic number =   34
effective nuclear charge =   34
electron count =   34
net charge =    0
basis set = approximate basis set limit (UGBS)      
exchange correlation functional = PW91PW91            
cutoff radius (picometer) =  300
number of shells =   50
prepared by = Thomas A. Manz      
prepared date = July 2010           
magnetization =    2
density in atomic units:
0.49649648E+04
0.10135633E+03
0.25760237E+02
0.15292686E+02
0.98830566E+01
0.53343782E+01
0.26950169E+01
0.14068077E+01
0.75569719E+00
0.44747159E+00
0.29243204E+00
0.21073769E+00
0.16600406E+00
0.13478652E+00
0.11145429E+00
0.92279553E-01
0.76136634E-01
0.63154139E-01
0.51945146E-01
0.42545069E-01
0.34753319E-01
0.28300561E-01
0.23042681E-01
0.18725261E-01
0.15179220E-01
0.12280719E-01
0.99409036E-02
0.80871414E-02
0.65528844E-02
0.53037880E-02
0.43052002E-02
0.34919220E-02
0.28401653E-02
0.23081717E-02
0.18770942E-02
0.15322836E-02
0.12538262E-02
0.10255339E-02
0.83701249E-03
0.68548974E-03
0.56311255E-03
0.46149638E-03
0.37945728E-03
0.31273090E-03
0.25766584E-03
0.21287845E-03
0.17583604E-03
0.14535982E-03
0.12028047E-03
0.99780969E-04
