atomic number =   35
effective nuclear charge =   35
electron count =   36
net charge =   -1
basis set = approximate basis set limit (UGBS)      
exchange correlation functional = PW91                
cutoff radius (picometer) =  300
number of shells =   50
prepared by = Thomas A. Manz      
prepared date = 2011                
magnetization =    0
density in atomic units:
0.54482373E+04
0.10328048E+03
0.27317335E+02
0.16663176E+02
0.10270221E+02
0.52341661E+01
0.25230074E+01
0.12882432E+01
0.70201266E+00
0.43902260E+00
0.30992749E+00
0.23953629E+00
0.19714470E+00
0.16411774E+00
0.13724642E+00
0.11400691E+00
0.94004951E-01
0.77823520E-01
0.63907348E-01
0.52317951E-01
0.42794265E-01
0.34963254E-01
0.28612794E-01
0.23414427E-01
0.19141143E-01
0.15639696E-01
0.12797294E-01
0.10529481E-01
0.86358339E-02
0.70776893E-02
0.58181458E-02
0.47799377E-02
0.39374572E-02
0.32407125E-02
0.26687549E-02
0.22051830E-02
0.18259746E-02
0.15108669E-02
0.12472733E-02
0.10326987E-02
0.85720123E-03
0.70960191E-03
0.58891636E-03
0.48961514E-03
0.40675918E-03
0.33864230E-03
0.28176446E-03
0.23454487E-03
0.19533320E-03
0.16299827E-03
