atomic number =   71
effective nuclear charge =   71
electron count =   72
net charge =   -1
basis set = approximate basis set limit (UGBS)      
exchange correlation functional = PW91                
cutoff radius (picometer) =  300
number of shells =   50
prepared by = Thomas A. Manz      
prepared date = 2012                
magnetization =    2
density in atomic units:
0.53496562E+05
0.24872316E+03
0.59195911E+02
0.32104317E+02
0.19573776E+02
0.94204178E+01
0.45114741E+01
0.25074167E+01
0.15554051E+01
0.10545167E+01
0.73089182E+00
0.50693506E+00
0.35943431E+00
0.25190684E+00
0.17715146E+00
0.12441305E+00
0.87687433E-01
0.63732654E-01
0.46894919E-01
0.35384856E-01
0.27480172E-01
0.21972530E-01
0.18111739E-01
0.15289567E-01
0.13182122E-01
0.11540701E-01
0.10252241E-01
0.92145028E-02
0.83198994E-02
0.75459005E-02
0.68701836E-02
0.62629408E-02
0.57176766E-02
0.52231024E-02
0.47676633E-02
0.43556551E-02
0.39812778E-02
0.36347331E-02
0.33107589E-02
0.30173147E-02
0.27493709E-02
0.24993767E-02
0.22728832E-02
0.20662153E-02
0.18759506E-02
0.17032800E-02
0.15444929E-02
0.13993341E-02
0.12670292E-02
0.11474191E-02
