atomic number =   50
effective nuclear charge =   50
electron count =   49
net charge =    1
basis set = approximate basis set limit (UGBS)      
exchange correlation functional = PW91                
cutoff radius (picometer) =  300
number of shells =   50
prepared by = Thomas A. Manz      
prepared date = 2011                
magnetization =    1
density in atomic units:
0.17204443E+05
0.14688141E+03
0.59809544E+02
0.19866106E+02
0.70353627E+01
0.42930841E+01
0.33634410E+01
0.25107210E+01
0.17212564E+01
0.11329771E+01
0.72223616E+00
0.45792624E+00
0.30421686E+00
0.20514120E+00
0.14303587E+00
0.10240793E+00
0.75193055E-01
0.57421338E-01
0.44469323E-01
0.34973197E-01
0.27866082E-01
0.22398831E-01
0.18168982E-01
0.14815629E-01
0.12119303E-01
0.99392002E-02
0.81841191E-02
0.67879353E-02
0.56218039E-02
0.46605491E-02
0.38795033E-02
0.32316602E-02
0.27016939E-02
0.22596514E-02
0.18933732E-02
0.15929382E-02
0.13445232E-02
0.11356139E-02
0.95830689E-03
0.81179413E-03
0.68990194E-03
0.58563589E-03
0.49885322E-03
0.42601235E-03
0.36402623E-03
0.31192234E-03
0.26739444E-03
0.22950447E-03
0.19725077E-03
0.16996446E-03
