atomic number =   38
effective nuclear charge =   38
electron count =   39
net charge =   -1
basis set = approximate basis set limit (UGBS)      
exchange correlation functional = PW91                
cutoff radius (picometer) =  300
number of shells =   50
prepared by = Thomas A. Manz      
prepared date = 2011                
magnetization =    1
density in atomic units:
0.70982817E+04
0.10862117E+03
0.33449451E+02
0.20275459E+02
0.10612197E+02
0.45772538E+01
0.20183420E+01
0.10857570E+01
0.70655125E+00
0.53399509E+00
0.42245221E+00
0.33341160E+00
0.26292413E+00
0.20215802E+00
0.15336540E+00
0.11432032E+00
0.84123813E-01
0.62527232E-01
0.46189379E-01
0.34295786E-01
0.25778249E-01
0.19678837E-01
0.15366771E-01
0.12281178E-01
0.10051254E-01
0.84336055E-02
0.72542951E-02
0.63948473E-02
0.57242215E-02
0.51946109E-02
0.47716931E-02
0.44161789E-02
0.41133384E-02
0.38433040E-02
0.35986179E-02
0.33770415E-02
0.31715657E-02
0.29767402E-02
0.27900550E-02
0.26150090E-02
0.24508554E-02
0.22919353E-02
0.21424505E-02
0.20016767E-02
0.18670066E-02
0.17407183E-02
0.16204519E-02
0.15069505E-02
0.13998190E-02
0.12998815E-02
