atomic number =   40
effective nuclear charge =   40
electron count =   37
net charge =    3
basis set = approximate basis set limit (UGBS)      
exchange correlation functional = PW91                
cutoff radius (picometer) =  300
number of shells =   50
prepared by = Thomas A. Manz      
prepared date = 2011                
magnetization =    1
density in atomic units:
0.83719668E+04
0.11242675E+03
0.38424931E+02
0.21927563E+02
0.10218871E+02
0.40290384E+01
0.18050374E+01
0.10963104E+01
0.80411136E+00
0.63463455E+00
0.49415505E+00
0.37184584E+00
0.27726659E+00
0.20061341E+00
0.14312142E+00
0.10017250E+00
0.69206059E-01
0.48326332E-01
0.33454314E-01
0.23072276E-01
0.16040528E-01
0.11190240E-01
0.78689931E-02
0.56112353E-02
0.40061884E-02
0.29085968E-02
0.21224518E-02
0.15842327E-02
0.11884345E-02
0.89510024E-03
0.68581628E-03
0.52993780E-03
0.41558276E-03
0.32867017E-03
0.26143450E-03
0.21178152E-03
0.17232174E-03
0.14083387E-03
0.11573340E-03
0.95783398E-04
0.80469312E-04
0.67454472E-04
0.56582754E-04
0.47929349E-04
0.40472692E-04
0.34340501E-04
0.29083871E-04
0.24709396E-04
0.20917458E-04
0.17720055E-04
