atomic number =   34
effective nuclear charge =   34
electron count =   32
net charge =    2
basis set = approximate basis set limit (UGBS)      
exchange correlation functional = PW91                
cutoff radius (picometer) =  300
number of shells =   50
prepared by = Thomas A. Manz      
prepared date = 2012                
magnetization =    2
density in atomic units:
0.49658550E+04
0.10138010E+03
0.25765417E+02
0.15283202E+02
0.98771210E+01
0.53342557E+01
0.26968544E+01
0.14070551E+01
0.75233495E+00
0.43992013E+00
0.28079367E+00
0.19573717E+00
0.14875120E+00
0.11612264E+00
0.92197217E-01
0.73113680E-01
0.57611570E-01
0.45623660E-01
0.35691615E-01
0.27715083E-01
0.21405164E-01
0.16428117E-01
0.12575765E-01
0.95823435E-02
0.72597894E-02
0.54747625E-02
0.41218512E-02
0.31183972E-02
0.23423745E-02
0.17534823E-02
0.13157575E-02
0.98467548E-03
0.73859998E-03
0.55260502E-03
0.41313298E-03
0.30996313E-03
0.23291369E-03
0.17457253E-03
0.13011968E-03
0.97219723E-04
0.72737683E-04
0.54067616E-04
0.40207986E-04
0.29886865E-04
0.22110315E-04
0.16340664E-04
0.12006354E-04
0.88012075E-05
0.64488381E-05
0.47224053E-05
