atomic number =   33
effective nuclear charge =   33
electron count =   32
net charge =    1
basis set = approximate basis set limit (UGBS)      
exchange correlation functional = PW91                
cutoff radius (picometer) =  300
number of shells =   50
prepared by = Thomas A. Manz      
prepared date = 2012                
magnetization =    2
density in atomic units:
0.45127896E+04
0.99271515E+02
0.24478725E+02
0.13906750E+02
0.93713341E+01
0.53511429E+01
0.28404758E+01
0.15316211E+01
0.82968044E+00
0.47852972E+00
0.29430702E+00
0.19622597E+00
0.14449461E+00
0.11113679E+00
0.88432856E-01
0.71291246E-01
0.57727017E-01
0.47261130E-01
0.38453501E-01
0.31179495E-01
0.25214469E-01
0.20311266E-01
0.16342489E-01
0.13109645E-01
0.10474455E-01
0.83425380E-02
0.66392035E-02
0.53064637E-02
0.42178966E-02
0.33442727E-02
0.26570247E-02
0.21066288E-02
0.16735143E-02
0.13267356E-02
0.10512592E-02
0.83554175E-03
0.66508149E-03
0.52849401E-03
0.41839707E-03
0.33209656E-03
0.26420143E-03
0.20936556E-03
0.16631118E-03
0.13230609E-03
0.10507392E-03
0.83647326E-04
0.66470981E-04
0.52820305E-04
0.41971725E-04
0.33398930E-04
