atomic number =   52
effective nuclear charge =   52
electron count =   54
net charge =   -2
basis set = approximate basis set limit (UGBS)      
exchange correlation functional = PW91                
cutoff radius (picometer) =  300
number of shells =   50
prepared by = Thomas A. Manz      
prepared date = 2011                
magnetization =    0
density in atomic units:
0.19533230E+05
0.15687971E+03
0.61349026E+02
0.18513844E+02
0.73072314E+01
0.50817585E+01
0.38352211E+01
0.26536021E+01
0.16845720E+01
0.10403347E+01
0.63518369E+00
0.39819661E+00
0.27148026E+00
0.19470179E+00
0.14814262E+00
0.11754094E+00
0.96081391E-01
0.80883346E-01
0.68634070E-01
0.58614090E-01
0.50266754E-01
0.43176074E-01
0.37173547E-01
0.32016695E-01
0.27558533E-01
0.23710141E-01
0.20419236E-01
0.17655665E-01
0.15227188E-01
0.13122769E-01
0.11332447E-01
0.97785257E-02
0.84512960E-02
0.72959857E-02
0.62972200E-02
0.54451535E-02
0.47124126E-02
0.40723397E-02
0.35096433E-02
0.30285411E-02
0.26157333E-02
0.22517135E-02
0.19399746E-02
0.16718892E-02
0.14382153E-02
0.12379707E-02
0.10637761E-02
0.91340480E-03
0.78369526E-03
0.67290658E-03
