atomic number =   38
effective nuclear charge =   38
electron count =   36
net charge =    2
basis set = approximate basis set limit (UGBS)      
exchange correlation functional = PW91                
cutoff radius (picometer) =  300
number of shells =   50
prepared by = Thomas A. Manz      
prepared date = 2011                
magnetization =    0
density in atomic units:
0.70973247E+04
0.10862014E+03
0.33448162E+02
0.20271938E+02
0.10612250E+02
0.45763173E+01
0.20147076E+01
0.10809399E+01
0.70228720E+00
0.53126937E+00
0.42146394E+00
0.33374047E+00
0.26387534E+00
0.20317248E+00
0.15401393E+00
0.11432029E+00
0.83345540E-01
0.60990434E-01
0.43932229E-01
0.31412221E-01
0.22382148E-01
0.15882021E-01
0.11277341E-01
0.79907458E-02
0.56394278E-02
0.39675799E-02
0.27910725E-02
0.19781452E-02
0.13910625E-02
0.97456953E-03
0.68514794E-03
0.48024888E-03
0.33767810E-03
0.23676113E-03
0.16587315E-03
0.11682662E-03
0.82478633E-04
0.58064677E-04
0.40577888E-04
0.28430526E-04
0.19970872E-04
0.13903687E-04
0.96696767E-05
0.67219894E-05
0.46441137E-05
0.32045539E-05
0.21784158E-05
0.14813228E-05
0.10086675E-05
0.68654981E-06
