atomic number =   51
effective nuclear charge =   51
electron count =   55
net charge =   -4
basis set = approximate basis set limit (UGBS)      
exchange correlation functional = PW91                
cutoff radius (picometer) =  300
number of shells =   50
prepared by = Thomas A. Manz      
prepared date = 2012                
magnetization =    1
density in atomic units:
0.18342688E+05
0.15177443E+03
0.60727180E+02
0.19173031E+02
0.71142154E+01
0.46753130E+01
0.36149926E+01
0.26007171E+01
0.17148510E+01
0.10912895E+01
0.67817569E+00
0.42497945E+00
0.28424233E+00
0.19690759E+00
0.14371468E+00
0.10944644E+00
0.86417504E-01
0.71016312E-01
0.59315510E-01
0.50252885E-01
0.43037873E-01
0.37122346E-01
0.32252058E-01
0.28156895E-01
0.24673156E-01
0.21703031E-01
0.19184249E-01
0.17078554E-01
0.15227745E-01
0.13619032E-01
0.12237747E-01
0.11022186E-01
0.99639678E-02
0.90197297E-02
0.81791608E-02
0.74370876E-02
0.67738038E-02
0.61696428E-02
0.56134043E-02
0.51142103E-02
0.46636304E-02
0.42452402E-02
0.38671356E-02
0.35237749E-02
0.32077299E-02
0.29214469E-02
0.26581900E-02
0.24179157E-02
0.21981674E-02
0.19997675E-02
