atomic number =   71
effective nuclear charge =   71
electron count =   71
net charge =    0
basis set = approximate basis set limit (UGBS)      
exchange correlation functional = PW91PW91            
cutoff radius (picometer) =  300
number of shells =   50
prepared by = Thomas A. Manz      
prepared date = July 2010           
magnetization =    1
density in atomic units:
0.53496852E+05
0.24872983E+03
0.59192711E+02
0.32104767E+02
0.19573872E+02
0.94203348E+01
0.45109596E+01
0.25065238E+01
0.15545304E+01
0.10537343E+01
0.73088843E+00
0.50734735E+00
0.36030018E+00
0.25324738E+00
0.17867084E+00
0.12580484E+00
0.89135468E-01
0.65023318E-01
0.48160326E-01
0.36331490E-01
0.28287726E-01
0.22554573E-01
0.18397799E-01
0.15429473E-01
0.13064388E-01
0.11303144E-01
0.98222494E-02
0.86593488E-02
0.76507721E-02
0.67498097E-02
0.59857126E-02
0.53051705E-02
0.47120531E-02
0.41784123E-02
0.36935806E-02
0.32769854E-02
0.28988237E-02
0.25572740E-02
0.22511175E-02
0.19794567E-02
0.17444299E-02
0.15302781E-02
0.13413276E-02
0.11764960E-02
0.10287077E-02
0.90006384E-03
0.78591297E-03
0.68609044E-03
0.59810246E-03
0.52196253E-03
