atomic number =   30
effective nuclear charge =   30
electron count =   30
net charge =    0
basis set = approximate basis set limit (UGBS)      
exchange correlation functional = PW91PW91            
cutoff radius (picometer) =  300
number of shells =   50
prepared by = Thomas A. Manz      
prepared date = July 2010           
magnetization =    0
density in atomic units:
0.33305198E+04
0.91630676E+02
0.22225285E+02
0.10065290E+02
0.72811284E+01
0.48532677E+01
0.29746745E+01
0.17961980E+01
0.10602096E+01
0.63831192E+00
0.38916248E+00
0.24440327E+00
0.16493718E+00
0.11480937E+00
0.83249293E-01
0.62105402E-01
0.47441475E-01
0.37475429E-01
0.29921973E-01
0.24172796E-01
0.19719340E-01
0.16184444E-01
0.13370931E-01
0.11082197E-01
0.91968607E-02
0.76391455E-02
0.63583753E-02
0.53204186E-02
0.44384869E-02
0.36994615E-02
0.30905078E-02
0.25792578E-02
0.21568446E-02
0.18015110E-02
0.15049515E-02
0.12607932E-02
0.10580403E-02
0.88721496E-03
0.74227172E-03
0.62264525E-03
0.52350288E-03
0.43897808E-03
0.36893494E-03
0.31053871E-03
0.26117323E-03
0.22005763E-03
0.18525339E-03
0.15597843E-03
0.13132930E-03
0.11076778E-03
