atomic number =   59
effective nuclear charge =   59
electron count =   59
net charge =    0
basis set = approximate basis set limit (UGBS)      
exchange correlation functional = PW91PW91            
cutoff radius (picometer) =  300
number of shells =   50
prepared by = Thomas A. Manz      
prepared date = July 2010           
magnetization =    3
density in atomic units:
0.29422207E+05
0.19458028E+03
0.59341270E+02
0.17327564E+02
0.11193195E+02
0.76477656E+01
0.44446645E+01
0.24804664E+01
0.14012808E+01
0.87015253E+00
0.59759587E+00
0.44154891E+00
0.34437340E+00
0.26971489E+00
0.21031493E+00
0.16222925E+00
0.12330353E+00
0.94381653E-01
0.71430430E-01
0.53981397E-01
0.41003823E-01
0.31297728E-01
0.24180511E-01
0.18940168E-01
0.15034737E-01
0.12138118E-01
0.99963648E-02
0.84174778E-02
0.71916948E-02
0.62307548E-02
0.54822769E-02
0.48691779E-02
0.43670530E-02
0.39375187E-02
0.35635580E-02
0.32393711E-02
0.29505023E-02
0.26868293E-02
0.24436512E-02
0.22232700E-02
0.20229695E-02
0.18355388E-02
0.16648261E-02
0.15090370E-02
0.13646516E-02
0.12335160E-02
0.11127010E-02
0.10023017E-02
0.90166449E-03
0.81079849E-03
