atomic number =   24
effective nuclear charge =   24
electron count =   23
net charge =    1
basis set = approximate basis set limit (UGBS)      
exchange correlation functional = PW91PW91            
cutoff radius (picometer) =  300
number of shells =   50
prepared by = Thomas A. Manz      
prepared date = July 2010           
magnetization =    5
density in atomic units:
0.16608464E+04
0.68799698E+02
0.22686989E+02
0.67098594E+01
0.32456667E+01
0.24288754E+01
0.19216800E+01
0.14419833E+01
0.10157871E+01
0.69583726E+00
0.46281239E+00
0.30404326E+00
0.20602812E+00
0.13946962E+00
0.95969684E-01
0.66681750E-01
0.46827175E-01
0.33958714E-01
0.24812497E-01
0.18382022E-01
0.13812698E-01
0.10499943E-01
0.80900732E-02
0.62919445E-02
0.49294014E-02
0.38872072E-02
0.30902415E-02
0.24849095E-02
0.20003307E-02
0.16159462E-02
0.13143846E-02
0.10722056E-02
0.88002061E-03
0.72411919E-03
0.59799652E-03
0.49692532E-03
0.41490782E-03
0.34707901E-03
0.29033134E-03
0.24393805E-03
0.20578751E-03
0.17345232E-03
0.14669757E-03
0.12437682E-03
0.10546680E-03
0.89672241E-04
0.76232005E-04
0.64871951E-04
0.55257409E-04
0.47173005E-04
