atomic number =   47
effective nuclear charge =   47
electron count =   43
net charge =    4
basis set = approximate basis set limit (UGBS)      
exchange correlation functional = PW91PW91            
cutoff radius (picometer) =  300
number of shells =   50
prepared by = Thomas A. Manz      
prepared date = July 2010           
magnetization =    3
density in atomic units:
0.14081497E+05
0.13329633E+03
0.55357605E+02
0.21811630E+02
0.74546928E+01
0.34421382E+01
0.25015554E+01
0.19685218E+01
0.14552362E+01
0.10164616E+01
0.67471534E+00
0.43174312E+00
0.28161332E+00
0.18165205E+00
0.11818873E+00
0.77189893E-01
0.51069863E-01
0.34943648E-01
0.24199318E-01
0.16900318E-01
0.12068654E-01
0.87073566E-02
0.63578133E-02
0.47308947E-02
0.35242410E-02
0.26724718E-02
0.20310448E-02
0.15723978E-02
0.12185043E-02
0.94338687E-03
0.73777669E-03
0.57793985E-03
0.45595042E-03
0.36011823E-03
0.28428907E-03
0.22680203E-03
0.18093309E-03
0.14429845E-03
0.11509376E-03
0.91991235E-04
0.74052274E-04
0.59323629E-04
0.47599646E-04
0.38319737E-04
0.30756102E-04
0.24760096E-04
0.19899468E-04
0.16007969E-04
0.12832887E-04
0.10296148E-04
