atomic number =   52
effective nuclear charge =   52
electron count =   51
net charge =    1
basis set = approximate basis set limit (UGBS)      
exchange correlation functional = PW91                
cutoff radius (picometer) =  300
number of shells =   50
prepared by = Thomas A. Manz      
prepared date = 2011                
magnetization =    3
density in atomic units:
0.19534713E+05
0.15688269E+03
0.61340466E+02
0.18513187E+02
0.73029137E+01
0.50761156E+01
0.38328919E+01
0.26549125E+01
0.16876819E+01
0.10429270E+01
0.63558531E+00
0.39564556E+00
0.26609981E+00
0.18671596E+00
0.13805465E+00
0.10585523E+00
0.83305128E-01
0.67511201E-01
0.55024114E-01
0.45076855E-01
0.37043538E-01
0.30448075E-01
0.25066260E-01
0.20618185E-01
0.16924964E-01
0.13870481E-01
0.11371087E-01
0.93646366E-02
0.76818299E-02
0.62927729E-02
0.51679048E-02
0.42397627E-02
0.34864205E-02
0.28640765E-02
0.23535076E-02
0.19404596E-02
0.16030597E-02
0.13233988E-02
0.10900592E-02
0.90048491E-03
0.74584188E-03
0.61610894E-03
0.51031628E-03
0.42349152E-03
0.35121851E-03
0.29194649E-03
0.24258900E-03
0.20167368E-03
0.16774035E-03
0.13982592E-03
