atomic number =   25
effective nuclear charge =   25
electron count =   29
net charge =   -4
basis set = approximate basis set limit (UGBS)      
exchange correlation functional = PW91                
cutoff radius (picometer) =  300
number of shells =   50
prepared by = Thomas A. Manz      
prepared date = 2011                
magnetization =    7
density in atomic units:
0.18833124E+04
0.73454170E+02
0.22425699E+02
0.67197614E+01
0.37007689E+01
0.28458648E+01
0.21555548E+01
0.15383388E+01
0.10328709E+01
0.67866230E+00
0.43568432E+00
0.27866229E+00
0.18628940E+00
0.12618531E+00
0.88390686E-01
0.63811369E-01
0.47599096E-01
0.37282668E-01
0.29993860E-01
0.24830213E-01
0.21077923E-01
0.18257337E-01
0.16104182E-01
0.14399263E-01
0.13017139E-01
0.11874956E-01
0.10926262E-01
0.10137715E-01
0.94421832E-02
0.88294186E-02
0.82903672E-02
0.78010699E-02
0.73568490E-02
0.69465213E-02
0.65593054E-02
0.61997660E-02
0.58607575E-02
0.55343173E-02
0.52159652E-02
0.49135131E-02
0.46244599E-02
0.43409448E-02
0.40708887E-02
0.38122539E-02
0.35621841E-02
0.33243576E-02
0.30952741E-02
0.28763614E-02
0.26678722E-02
0.24715352E-02
