atomic number =   23
effective nuclear charge =   23
electron count =   23
net charge =    0
basis set = approximate basis set limit (UGBS)      
exchange correlation functional = PW91PW91            
cutoff radius (picometer) =  300
number of shells =   50
prepared by = Thomas A. Manz      
prepared date = July 2010           
magnetization =    3
density in atomic units:
0.14605068E+04
0.64110954E+02
0.22770117E+02
0.68037777E+01
0.28914931E+01
0.20377450E+01
0.16554488E+01
0.12826660E+01
0.93554854E+00
0.65421867E+00
0.44401544E+00
0.29404783E+00
0.20073970E+00
0.13745224E+00
0.95840156E-01
0.67744009E-01
0.49437594E-01
0.37499081E-01
0.29324025E-01
0.23242285E-01
0.19072043E-01
0.15870143E-01
0.13360110E-01
0.11484193E-01
0.98532280E-02
0.85791247E-02
0.74473531E-02
0.65272707E-02
0.57104621E-02
0.49792323E-02
0.43565510E-02
0.38061047E-02
0.33304398E-02
0.29090242E-02
0.25357574E-02
0.22168413E-02
0.19357629E-02
0.16872477E-02
0.14673356E-02
0.12766033E-02
0.11124866E-02
0.96599269E-03
0.83922775E-03
0.72955037E-03
0.63302903E-03
0.54980395E-03
0.47681836E-03
0.41336834E-03
0.35815258E-03
0.31061392E-03
