atomic number =   31
effective nuclear charge =   31
electron count =   28
net charge =    3
basis set = approximate basis set limit (UGBS)      
exchange correlation functional = PW91PW91            
cutoff radius (picometer) =  300
number of shells =   50
prepared by = Thomas A. Manz      
prepared date = July 2010           
magnetization =    0
density in atomic units:
0.36928010E+04
0.94391701E+02
0.22813463E+02
0.11270373E+02
0.80493422E+01
0.51292458E+01
0.30152893E+01
0.17551844E+01
0.99470454E+00
0.56985492E+00
0.32460421E+00
0.18570855E+00
0.11206856E+00
0.67819253E-01
0.41782141E-01
0.25893347E-01
0.16093569E-01
0.10328469E-01
0.66157100E-02
0.42629265E-02
0.27678295E-02
0.18048243E-02
0.11872662E-02
0.78492257E-03
0.52028353E-03
0.34622595E-03
0.23199296E-03
0.15779540E-03
0.10693344E-03
0.72420393E-04
0.49330360E-04
0.33521588E-04
0.22866707E-04
0.15570882E-04
0.10584926E-04
0.72096936E-05
0.48920951E-05
0.33083193E-05
0.22156162E-05
0.14856794E-05
0.10092052E-05
0.68010718E-06
0.45966257E-06
0.31110386E-06
0.20959044E-06
0.14082862E-06
0.94151993E-07
0.62570244E-07
0.41301192E-07
0.27137400E-07
