atomic number =   33
effective nuclear charge =   33
electron count =   31
net charge =    2
basis set = approximate basis set limit (UGBS)      
exchange correlation functional = PW91                
cutoff radius (picometer) =  300
number of shells =   50
prepared by = Thomas A. Manz      
prepared date = 2012                
magnetization =    1
density in atomic units:
0.45132349E+04
0.99284744E+02
0.24485825E+02
0.13902224E+02
0.93680391E+01
0.53514872E+01
0.28422980E+01
0.15326623E+01
0.82861966E+00
0.47494841E+00
0.28823939E+00
0.18809605E+00
0.13497548E+00
0.10074328E+00
0.77666938E-01
0.60577758E-01
0.47403067E-01
0.37543874E-01
0.29510068E-01
0.23096520E-01
0.18016728E-01
0.13986796E-01
0.10840389E-01
0.83698146E-02
0.64301793E-02
0.49202368E-02
0.37601315E-02
0.28873670E-02
0.22023753E-02
0.16745480E-02
0.12760146E-02
0.96976745E-03
0.73847926E-03
0.56079205E-03
0.42542294E-03
0.32382255E-03
0.24681535E-03
0.18765681E-03
0.14191636E-03
0.10752355E-03
0.81636521E-04
0.61635248E-04
0.46619294E-04
0.35293928E-04
0.26628948E-04
0.20124327E-04
0.15165116E-04
0.11412498E-04
0.85768652E-05
0.64977130E-05
