atomic number =   33
effective nuclear charge =   33
electron count =   27
net charge =    6
basis set = approximate basis set limit (UGBS)      
exchange correlation functional = PW91                
cutoff radius (picometer) =  300
number of shells =   50
prepared by = Thomas A. Manz      
prepared date = 2012                
magnetization =    1
density in atomic units:
0.45079556E+04
0.98993347E+02
0.24285892E+02
0.13714992E+02
0.91715841E+01
0.51992502E+01
0.27029188E+01
0.13932002E+01
0.69519860E+00
0.34666386E+00
0.17018357E+00
0.82222715E-01
0.42076100E-01
0.21347597E-01
0.10909438E-01
0.55448571E-02
0.28014530E-02
0.14656979E-02
0.76112495E-03
0.39290922E-03
0.20430882E-03
0.10522825E-03
0.53948876E-04
0.27540358E-04
0.13773091E-04
0.68144959E-05
0.33068152E-05
0.16175279E-05
0.78777413E-06
0.38353681E-06
0.19093231E-06
0.95648957E-07
0.48658933E-07
0.24935426E-07
0.12845422E-07
0.67293122E-08
0.38018806E-08
0.20590838E-08
0.10939737E-08
0.60039884E-09
0.32955000E-09
0.18004363E-09
0.10352684E-09
0.60351203E-10
0.35418377E-10
0.21156387E-10
0.12619072E-10
0.78001780E-11
0.47925661E-11
0.28822439E-11
