atomic number =   17
effective nuclear charge =   17
electron count =   18
net charge =   -1
basis set = approximate basis set limit (UGBS)      
exchange correlation functional = PW91PW91            
cutoff radius (picometer) =  300
number of shells =   50
prepared by = Thomas A. Manz      
prepared date = July 2010           
magnetization =    0
density in atomic units:
0.61240424E+03
0.34842281E+02
0.17602158E+02
0.84871302E+01
0.36318798E+01
0.14237579E+01
0.65407670E+00
0.41433516E+00
0.32810906E+00
0.28765345E+00
0.25401527E+00
0.21964858E+00
0.18753962E+00
0.15644181E+00
0.12892026E+00
0.10473441E+00
0.84223911E-01
0.68085492E-01
0.54624632E-01
0.43758627E-01
0.35091445E-01
0.28154969E-01
0.22668231E-01
0.18273357E-01
0.14732526E-01
0.11882177E-01
0.96045639E-02
0.78135235E-02
0.63371724E-02
0.51372098E-02
0.41785631E-02
0.33970629E-02
0.27698001E-02
0.22568880E-02
0.18400261E-02
0.15058747E-02
0.12352924E-02
0.10128197E-02
0.82863297E-03
0.68015553E-03
0.55995409E-03
0.45982507E-03
0.37874098E-03
0.31262633E-03
0.25796428E-03
0.21343768E-03
0.17658088E-03
0.14620749E-03
0.12116218E-03
0.10067690E-03
