atomic number =   41
effective nuclear charge =   41
electron count =   42
net charge =   -1
basis set = approximate basis set limit (UGBS)      
exchange correlation functional = PW91                
cutoff radius (picometer) =  300
number of shells =   50
prepared by = Thomas A. Manz      
prepared date = 2012                
magnetization =    4
density in atomic units:
0.90657285E+04
0.11470502E+03
0.41076557E+02
0.22475084E+02
0.98881388E+01
0.37800715E+01
0.17651039E+01
0.11567391E+01
0.88988841E+00
0.71059883E+00
0.55285490E+00
0.41531226E+00
0.31162810E+00
0.22975646E+00
0.16932978E+00
0.12446721E+00
0.92344098E-01
0.70271559E-01
0.54262232E-01
0.42390291E-01
0.33983998E-01
0.27670115E-01
0.22871286E-01
0.19310905E-01
0.16380105E-01
0.14136222E-01
0.12235447E-01
0.10731417E-01
0.94329808E-02
0.82936268E-02
0.73373662E-02
0.64990893E-02
0.57775578E-02
0.51371027E-02
0.45644003E-02
0.40725120E-02
0.36313802E-02
0.32344020E-02
0.28773777E-02
0.25606896E-02
0.22835662E-02
0.20300052E-02
0.18049878E-02
0.16059442E-02
0.14260656E-02
0.12672010E-02
0.11243955E-02
0.99737430E-03
0.88391686E-03
0.78395935E-03
