atomic number =   35
effective nuclear charge =   35
electron count =   28
net charge =    7
basis set = approximate basis set limit (UGBS)      
exchange correlation functional = PW91                
cutoff radius (picometer) =  300
number of shells =   50
prepared by = Thomas A. Manz      
prepared date = 2011                
magnetization =    0
density in atomic units:
0.54398179E+04
0.10339191E+03
0.27368484E+02
0.16506886E+02
0.10212763E+02
0.52473631E+01
0.25042667E+01
0.12028159E+01
0.55723083E+00
0.25939989E+00
0.11822821E+00
0.53116854E-01
0.25362531E-01
0.11976783E-01
0.57047834E-02
0.27052432E-02
0.12667906E-02
0.61969296E-03
0.30098928E-03
0.14738378E-03
0.72944364E-04
0.36095826E-04
0.17854609E-04
0.86789651E-05
0.41099756E-05
0.18976485E-05
0.84531592E-06
0.36899760E-06
0.14489571E-06
0.48569127E-07
0.19597341E-07
0.96368415E-08
0.43316768E-08
0.17819423E-08
0.76662721E-09
0.33937664E-09
0.17870283E-09
0.99692983E-10
0.58739180E-10
0.38483133E-10
0.25516764E-10
0.16880112E-10
0.11288288E-10
0.70785387E-11
0.43271337E-11
0.28236181E-11
0.16539268E-11
0.97482417E-12
0.59158911E-12
0.31002867E-12
