atomic number =   30
effective nuclear charge =   30
electron count =   29
net charge =    1
basis set = approximate basis set limit (UGBS)      
exchange correlation functional = PW91PW91            
cutoff radius (picometer) =  300
number of shells =   50
prepared by = Thomas A. Manz      
prepared date = July 2010           
magnetization =    1
density in atomic units:
0.33293684E+04
0.91610687E+02
0.22258842E+02
0.10075673E+02
0.72841034E+01
0.48617077E+01
0.29861579E+01
0.18057388E+01
0.10650840E+01
0.63815498E+00
0.38459021E+00
0.23659293E+00
0.15522049E+00
0.10407753E+00
0.72211295E-01
0.51272850E-01
0.37156433E-01
0.27914276E-01
0.21207709E-01
0.16346620E-01
0.12769772E-01
0.10075235E-01
0.80369413E-02
0.64578443E-02
0.52149384E-02
0.42307908E-02
0.34516794E-02
0.28411520E-02
0.23374029E-02
0.19260016E-02
0.15945189E-02
0.13212840E-02
0.10991583E-02
0.91475790E-03
0.76248008E-03
0.63818076E-03
0.53558085E-03
0.44950398E-03
0.37665933E-03
0.31665477E-03
0.26695579E-03
0.22457707E-03
0.18940562E-03
0.15999928E-03
0.13506629E-03
0.11425603E-03
0.96581258E-04
0.81667509E-04
0.69069698E-04
0.58516824E-04
