atomic number =   29
effective nuclear charge =   29
electron count =   28
net charge =    1
basis set = approximate basis set limit (UGBS)      
exchange correlation functional = PW91PW91            
cutoff radius (picometer) =  300
number of shells =   50
prepared by = Thomas A. Manz      
prepared date = July 2010           
magnetization =    0
density in atomic units:
0.29900054E+04
0.88516319E+02
0.22005724E+02
0.90350637E+01
0.64929314E+01
0.45354280E+01
0.29173968E+01
0.18315279E+01
0.11157655E+01
0.68591803E+00
0.42139956E+00
0.26218903E+00
0.17231175E+00
0.11467893E+00
0.78273326E-01
0.54195106E-01
0.37984774E-01
0.27475312E-01
0.19982148E-01
0.14685905E-01
0.10911293E-01
0.81720911E-02
0.61848462E-02
0.47141160E-02
0.36111842E-02
0.27810044E-02
0.21567887E-02
0.16922720E-02
0.13280193E-02
0.10452460E-02
0.82855765E-03
0.65847259E-03
0.52663154E-03
0.42214728E-03
0.33957668E-03
0.27500867E-03
0.22380547E-03
0.18245712E-03
0.14866922E-03
0.12168955E-03
0.99999474E-04
0.81991318E-04
0.67423563E-04
0.55536268E-04
0.45687357E-04
0.37645168E-04
0.30978492E-04
0.25467985E-04
0.20901478E-04
0.17153312E-04
