atomic number =   48
effective nuclear charge =   48
electron count =   47
net charge =    1
basis set = approximate basis set limit (UGBS)      
exchange correlation functional = PW91                
cutoff radius (picometer) =  300
number of shells =   50
prepared by = Thomas A. Manz      
prepared date = 2011                
magnetization =    1
density in atomic units:
0.15073093E+05
0.13780113E+03
0.57123230E+02
0.21222349E+02
0.72167058E+01
0.36740413E+01
0.28216140E+01
0.22340882E+01
0.16451771E+01
0.11561146E+01
0.77938557E+00
0.51538068E+00
0.35017121E+00
0.23730730E+00
0.16336682E+00
0.11355680E+00
0.79809643E-01
0.57929788E-01
0.42371172E-01
0.31413574E-01
0.23625046E-01
0.17976185E-01
0.13868426E-01
0.10808572E-01
0.84908754E-02
0.67207487E-02
0.53660176E-02
0.43362495E-02
0.35096139E-02
0.28510964E-02
0.23325158E-02
0.19135312E-02
0.15787879E-02
0.13052002E-02
0.10822597E-02
0.90238289E-03
0.75539981E-03
0.63311186E-03
0.53034618E-03
0.44601932E-03
0.37640237E-03
0.31717593E-03
0.26811077E-03
0.22713374E-03
0.19235630E-03
0.16329842E-03
0.13857921E-03
0.11766744E-03
0.99956051E-04
0.85070438E-04
