atomic number =   52
effective nuclear charge =   52
electron count =   53
net charge =   -1
basis set = approximate basis set limit (UGBS)      
exchange correlation functional = PW91                
cutoff radius (picometer) =  300
number of shells =   50
prepared by = Thomas A. Manz      
prepared date = 2011                
magnetization =    1
density in atomic units:
0.19533670E+05
0.15687993E+03
0.61348438E+02
0.18513956E+02
0.73072772E+01
0.50812883E+01
0.38346877E+01
0.26534884E+01
0.16849833E+01
0.10410477E+01
0.63588822E+00
0.39862683E+00
0.27150187E+00
0.19423473E+00
0.14718305E+00
0.11611040E+00
0.94231054E-01
0.78691103E-01
0.66156097E-01
0.55914987E-01
0.47411133E-01
0.40220324E-01
0.34171056E-01
0.29015455E-01
0.24596363E-01
0.20823911E-01
0.17634658E-01
0.14991235E-01
0.12700703E-01
0.10746918E-01
0.91118468E-02
0.77177738E-02
0.65488284E-02
0.55506947E-02
0.47045937E-02
0.39977063E-02
0.34014366E-02
0.28913196E-02
0.24519500E-02
0.20836473E-02
0.17738942E-02
0.15059258E-02
0.12806847E-02
0.10903090E-02
0.92717592E-03
0.78961748E-03
0.67174644E-03
0.57142525E-03
0.48602905E-03
0.41396497E-03
