atomic number =   32
effective nuclear charge =   32
electron count =   36
net charge =   -4
basis set = approximate basis set limit (UGBS)      
exchange correlation functional = PW91                
cutoff radius (picometer) =  300
number of shells =   50
prepared by = Thomas A. Manz      
prepared date = 2012                
magnetization =    0
density in atomic units:
0.40890813E+04
0.96953514E+02
0.23466185E+02
0.12548808E+02
0.87534256E+01
0.52772055E+01
0.29415343E+01
0.16442518E+01
0.91001010E+00
0.52468246E+00
0.31496817E+00
0.20167457E+00
0.14308058E+00
0.10742600E+00
0.85151792E-01
0.69862165E-01
0.58692787E-01
0.50537236E-01
0.43851625E-01
0.38344868E-01
0.33752646E-01
0.29858274E-01
0.26565950E-01
0.23736931E-01
0.21280402E-01
0.19142389E-01
0.17288370E-01
0.15698666E-01
0.14262669E-01
0.12974850E-01
0.11832753E-01
0.10792836E-01
0.98549472E-02
0.89894971E-02
0.81926240E-02
0.74671302E-02
0.68009300E-02
0.61787823E-02
0.55938559E-02
0.50599328E-02
0.45712618E-02
0.41128201E-02
0.36959380E-02
0.33160157E-02
0.29662796E-02
0.26505645E-02
0.23617723E-02
0.21003336E-02
0.18643633E-02
0.16539027E-02
