atomic number =   49
effective nuclear charge =   49
electron count =   50
net charge =   -1
basis set = approximate basis set limit (UGBS)      
exchange correlation functional = PW91                
cutoff radius (picometer) =  300
number of shells =   50
prepared by = Thomas A. Manz      
prepared date = 2011                
magnetization =    2
density in atomic units:
0.16114516E+05
0.14219580E+03
0.58613834E+02
0.20560911E+02
0.70740099E+01
0.39587173E+01
0.30955391E+01
0.23834336E+01
0.16925795E+01
0.11501008E+01
0.75349903E+00
0.48810613E+00
0.32866350E+00
0.22336458E+00
0.15625541E+00
0.11197747E+00
0.82316712E-01
0.63095532E-01
0.49267046E-01
0.39287433E-01
0.31929195E-01
0.26334425E-01
0.22032769E-01
0.18620254E-01
0.15856480E-01
0.13588122E-01
0.11723356E-01
0.10198810E-01
0.88836281E-02
0.77589205E-02
0.68065785E-02
0.59808590E-02
0.52726227E-02
0.46515516E-02
0.41098427E-02
0.36406626E-02
0.32315361E-02
0.28682249E-02
0.25420203E-02
0.22573841E-02
0.20067466E-02
0.17805534E-02
0.15819994E-02
0.14061786E-02
0.12489464E-02
0.11100901E-02
0.98573545E-03
0.87485713E-03
0.77629311E-03
0.68933592E-03
