atomic number =   51
effective nuclear charge =   51
electron count =   53
net charge =   -2
basis set = approximate basis set limit (UGBS)      
exchange correlation functional = PW91                
cutoff radius (picometer) =  300
number of shells =   50
prepared by = Thomas A. Manz      
prepared date = 2012                
magnetization =    1
density in atomic units:
0.18342395E+05
0.15177554E+03
0.60727116E+02
0.19173031E+02
0.71140966E+01
0.46754441E+01
0.36154182E+01
0.26011162E+01
0.17149929E+01
0.10911703E+01
0.67792505E+00
0.42473194E+00
0.28405970E+00
0.19680813E+00
0.14368616E+00
0.10947360E+00
0.86483292E-01
0.71105152E-01
0.59412543E-01
0.50333202E-01
0.43074947E-01
0.37086152E-01
0.32112550E-01
0.27889157E-01
0.24253502E-01
0.21118559E-01
0.18426720E-01
0.16152347E-01
0.14136050E-01
0.12370239E-01
0.10849440E-01
0.95119132E-02
0.83532063E-02
0.73290356E-02
0.64290329E-02
0.56492155E-02
0.49665780E-02
0.43602218E-02
0.38180717E-02
0.33460713E-02
0.29343306E-02
0.25649318E-02
0.22431752E-02
0.19617477E-02
0.17123255E-02
0.14950971E-02
0.13031097E-02
0.11347609E-02
0.98723359E-03
0.85931027E-03
