atomic number =   38
effective nuclear charge =   38
electron count =   38
net charge =    0
basis set = approximate basis set limit (UGBS)      
exchange correlation functional = PW91PW91            
cutoff radius (picometer) =  300
number of shells =   50
prepared by = Thomas A. Manz      
prepared date = April 2010          
magnetization =    0
density in atomic units:
0.70984814E+04
0.10862208E+03
0.33448811E+02
0.20275370E+02
0.10611985E+02
0.45773559E+01
0.20187020E+01
0.10860548E+01
0.70658052E+00
0.53371209E+00
0.42192236E+00
0.33277276E+00
0.26230752E+00
0.20166022E+00
0.15303805E+00
0.11418448E+00
0.84166788E-01
0.62712491E-01
0.46482719E-01
0.34659132E-01
0.26175722E-01
0.20080214E-01
0.15749050E-01
0.12625261E-01
0.10343908E-01
0.86635845E-02
0.74159591E-02
0.64852028E-02
0.57398840E-02
0.51351651E-02
0.46389382E-02
0.42120670E-02
0.38414395E-02
0.35077648E-02
0.32046398E-02
0.29303276E-02
0.26785806E-02
0.24433886E-02
0.22218830E-02
0.20189546E-02
0.18327833E-02
0.16576363E-02
0.14978800E-02
0.13517893E-02
0.12168823E-02
0.10946207E-02
0.98235661E-03
0.88023779E-03
0.78751933E-03
0.70444692E-03
