atomic number =   51
effective nuclear charge =   51
electron count =   54
net charge =   -3
basis set = approximate basis set limit (UGBS)      
exchange correlation functional = PW91                
cutoff radius (picometer) =  300
number of shells =   50
prepared by = Thomas A. Manz      
prepared date = 2012                
magnetization =    0
density in atomic units:
0.18342104E+05
0.15177533E+03
0.60727333E+02
0.19172932E+02
0.71138458E+01
0.46755767E+01
0.36157975E+01
0.26012959E+01
0.17147926E+01
0.10906321E+01
0.67723131E+00
0.42409164E+00
0.28362164E+00
0.19667578E+00
0.14390033E+00
0.11004834E+00
0.87395988E-01
0.72308399E-01
0.60870614E-01
0.52007891E-01
0.44923965E-01
0.39071906E-01
0.34202602E-01
0.30049551E-01
0.26458468E-01
0.23340331E-01
0.20643456E-01
0.18343160E-01
0.16281234E-01
0.14455496E-01
0.12860476E-01
0.11436719E-01
0.10183744E-01
0.90578664E-02
0.80515118E-02
0.71635162E-02
0.63729775E-02
0.56585185E-02
0.50083701E-02
0.44334289E-02
0.39231945E-02
0.34587618E-02
0.30485960E-02
0.26847697E-02
0.23586599E-02
0.20713708E-02
0.18148174E-02
0.15876704E-02
0.13870389E-02
0.12116755E-02
