atomic number =   53
effective nuclear charge =   53
electron count =   53
net charge =    0
basis set = approximate basis set limit (UGBS)      
exchange correlation functional = PW91PW91            
cutoff radius (picometer) =  300
number of shells =   50
prepared by = Thomas A. Manz      
prepared date = July 2010           
magnetization =    1
density in atomic units:
0.20778131E+05
0.16215483E+03
0.61685062E+02
0.17919897E+02
0.76112695E+01
0.54961915E+01
0.40138965E+01
0.26673415E+01
0.16336552E+01
0.98512179E+00
0.59772080E+00
0.38047796E+00
0.26734704E+00
0.19878423E+00
0.15587716E+00
0.12590732E+00
0.10331909E+00
0.86221769E-01
0.71780875E-01
0.59657447E-01
0.49477842E-01
0.40886953E-01
0.33741113E-01
0.27755512E-01
0.22743298E-01
0.18575141E-01
0.15156642E-01
0.12411695E-01
0.10112740E-01
0.82213199E-02
0.66961986E-02
0.54447879E-02
0.44358363E-02
0.36081451E-02
0.29346941E-02
0.23945260E-02
0.19574035E-02
0.15986254E-02
0.13020833E-02
0.10637621E-02
0.87145262E-03
0.71186275E-03
0.58313570E-03
0.47871319E-03
0.39275465E-03
0.32306186E-03
0.26563328E-03
0.21859811E-03
0.18003212E-03
0.14865308E-03
