atomic number =   52
effective nuclear charge =   52
electron count =   47
net charge =    5
basis set = approximate basis set limit (UGBS)      
exchange correlation functional = PW91                
cutoff radius (picometer) =  300
number of shells =   50
prepared by = Thomas A. Manz      
prepared date = 2011                
magnetization =    1
density in atomic units:
0.19531350E+05
0.15691635E+03
0.61289539E+02
0.18504967E+02
0.72673273E+01
0.50483212E+01
0.38340843E+01
0.26712234E+01
0.17004002E+01
0.10407807E+01
0.61534840E+00
0.36006492E+00
0.22082360E+00
0.13618563E+00
0.86136505E-01
0.55413082E-01
0.36217146E-01
0.24644330E-01
0.16914910E-01
0.11771968E-01
0.83050886E-02
0.59157289E-02
0.42654215E-02
0.31003489E-02
0.22662869E-02
0.16668173E-02
0.12362457E-02
0.92999201E-03
0.70029439E-03
0.52958680E-03
0.40414944E-03
0.30948289E-03
0.23875055E-03
0.18459052E-03
0.14310803E-03
0.11159059E-03
0.87307155E-04
0.68261019E-04
0.53153348E-04
0.41486401E-04
0.32389733E-04
0.25091538E-04
0.19405978E-04
0.14978773E-04
0.11484176E-04
0.87824355E-05
0.66782368E-05
0.50408507E-05
0.37623433E-05
0.27799390E-05
