atomic number =   77
effective nuclear charge =   77
electron count =   77
net charge =    0
basis set = approximate basis set limit (UGBS)      
exchange correlation functional = PW91PW91            
cutoff radius (picometer) =  300
number of shells =   50
prepared by = Thomas A. Manz      
prepared date = July 2010           
magnetization =    3
density in atomic units:
0.69294305E+05
0.26883884E+03
0.69622803E+02
0.40879505E+02
0.20188766E+02
0.83010416E+01
0.39665868E+01
0.24248226E+01
0.16484059E+01
0.11708848E+01
0.82586479E+00
0.57667422E+00
0.41277379E+00
0.29505613E+00
0.21401832E+00
0.15666641E+00
0.11612507E+00
0.88499926E-01
0.67999326E-01
0.52750930E-01
0.41449293E-01
0.32822300E-01
0.26222115E-01
0.21113046E-01
0.17036846E-01
0.13819740E-01
0.11242224E-01
0.92246765E-02
0.75556547E-02
0.61864811E-02
0.50874073E-02
0.41837394E-02
0.34524894E-02
0.28484177E-02
0.23514088E-02
0.19500571E-02
0.16204112E-02
0.13461505E-02
0.11165844E-02
0.92886720E-03
0.77520701E-03
0.64522732E-03
0.53834531E-03
0.45007785E-03
0.37594093E-03
0.31472323E-03
0.26333911E-03
0.22050580E-03
0.18469356E-03
0.15503787E-03
