atomic number =   17
effective nuclear charge =   17
electron count =   15
net charge =    2
basis set = approximate basis set limit (UGBS)      
exchange correlation functional = PW91PW91            
cutoff radius (picometer) =  300
number of shells =   50
prepared by = Thomas A. Manz      
prepared date = July 2010           
magnetization =    3
density in atomic units:
0.61281683E+03
0.34564747E+02
0.17509192E+02
0.84652786E+01
0.36253622E+01
0.14116968E+01
0.63004285E+00
0.37896052E+00
0.28346345E+00
0.23692459E+00
0.20029388E+00
0.16591306E+00
0.13600577E+00
0.10869716E+00
0.85774623E-01
0.66641182E-01
0.51199332E-01
0.39629217E-01
0.30424101E-01
0.23336591E-01
0.17938044E-01
0.13808602E-01
0.10681907E-01
0.82824780E-02
0.64270049E-02
0.49928268E-02
0.38908417E-02
0.30563565E-02
0.23935456E-02
0.18741691E-02
0.14739147E-02
0.11589475E-02
0.91471389E-03
0.72173768E-03
0.57010091E-03
0.45246031E-03
0.36012378E-03
0.28661132E-03
0.22764655E-03
0.18153040E-03
0.14532435E-03
0.11602909E-03
0.92960865E-04
0.74693962E-04
0.59983664E-04
0.48320999E-04
0.38930681E-04
0.31414078E-04
0.25359510E-04
0.20529927E-04
