atomic number =   36
effective nuclear charge =   36
electron count =   35
net charge =    1
basis set = approximate basis set limit (UGBS)      
exchange correlation functional = PW91                
cutoff radius (picometer) =  300
number of shells =   50
prepared by = Thomas A. Manz      
prepared date = 2011                
magnetization =    1
density in atomic units:
0.59645728E+04
0.10512441E+03
0.29130613E+02
0.17956884E+02
0.10513785E+02
0.50623775E+01
0.23400667E+01
0.11823115E+01
0.66219443E+00
0.43531871E+00
0.32022247E+00
0.25078177E+00
0.20398982E+00
0.16520441E+00
0.13327163E+00
0.10620701E+00
0.83731689E-01
0.66329554E-01
0.52034210E-01
0.40686984E-01
0.31800643E-01
0.24834938E-01
0.19446896E-01
0.15235297E-01
0.11927881E-01
0.93375193E-02
0.73256772E-02
0.57884874E-02
0.45582405E-02
0.35879831E-02
0.28357448E-02
0.22406536E-02
0.17769156E-02
0.14085477E-02
0.11176834E-02
0.89093758E-03
0.71223045E-03
0.56916795E-03
0.45373375E-03
0.36303210E-03
0.29144951E-03
0.23330642E-03
0.18733120E-03
0.15078159E-03
0.12126067E-03
0.97782315E-04
0.78815625E-04
0.63578569E-04
0.51312833E-04
0.41515057E-04
