atomic number =   36
effective nuclear charge =   36
electron count =   33
net charge =    3
basis set = approximate basis set limit (UGBS)      
exchange correlation functional = PW91                
cutoff radius (picometer) =  300
number of shells =   50
prepared by = Thomas A. Manz      
prepared date = 2011                
magnetization =    3
density in atomic units:
0.59653325E+04
0.10517221E+03
0.29118200E+02
0.17917704E+02
0.10498946E+02
0.50621014E+01
0.23348312E+01
0.11645421E+01
0.63177598E+00
0.39587948E+00
0.27580726E+00
0.20521602E+00
0.16005844E+00
0.12472581E+00
0.97167827E-01
0.74954771E-01
0.57324897E-01
0.44239730E-01
0.33893265E-01
0.25964266E-01
0.19949343E-01
0.15363613E-01
0.11899833E-01
0.92459638E-02
0.71941908E-02
0.56071500E-02
0.43856581E-02
0.34582468E-02
0.27193131E-02
0.21380857E-02
0.16882671E-02
0.13327250E-02
0.10558979E-02
0.83610544E-03
0.66267257E-03
0.52761490E-03
0.42127349E-03
0.33633091E-03
0.26796616E-03
0.21438012E-03
0.17217164E-03
0.13795181E-03
0.11093679E-03
0.89462090E-04
0.72147894E-04
0.58420257E-04
0.47319751E-04
0.38383860E-04
0.31179141E-04
0.25405196E-04
