atomic number =   33
effective nuclear charge =   33
electron count =   33
net charge =    0
basis set = approximate basis set limit (UGBS)      
exchange correlation functional = PW91PW91            
cutoff radius (picometer) =  300
number of shells =   50
prepared by = Thomas A. Manz      
prepared date = July 2010           
magnetization =    3
density in atomic units:
0.45124292E+04
0.99262848E+02
0.24475307E+02
0.13908648E+02
0.93729944E+01
0.53511968E+01
0.28394988E+01
0.15305835E+01
0.82938045E+00
0.47943431E+00
0.29664642E+00
0.19994363E+00
0.14930156E+00
0.11680648E+00
0.94691284E-01
0.77897646E-01
0.64465985E-01
0.53952157E-01
0.44954434E-01
0.37383087E-01
0.31043613E-01
0.25715301E-01
0.21299034E-01
0.17608618E-01
0.14518979E-01
0.11946541E-01
0.98292921E-02
0.81214225E-02
0.66818413E-02
0.54885335E-02
0.45182435E-02
0.37145682E-02
0.30602724E-02
0.25180159E-02
0.20720812E-02
0.17105935E-02
0.14147982E-02
0.11692822E-02
0.96413592E-03
0.79744536E-03
0.66130067E-03
0.54707791E-03
0.45386725E-03
0.37730194E-03
0.31355128E-03
0.26126977E-03
0.21761771E-03
0.18145311E-03
0.15141991E-03
0.12666722E-03
