atomic number =   51
effective nuclear charge =   51
electron count =   47
net charge =    4
basis set = approximate basis set limit (UGBS)      
exchange correlation functional = PW91                
cutoff radius (picometer) =  300
number of shells =   50
prepared by = Thomas A. Manz      
prepared date = 2012                
magnetization =    1
density in atomic units:
0.18341170E+05
0.15182446E+03
0.60687855E+02
0.19169155E+02
0.70930305E+01
0.46554689E+01
0.36152534E+01
0.26151633E+01
0.17309145E+01
0.10992707E+01
0.67358685E+00
0.40786913E+00
0.25760549E+00
0.16332227E+00
0.10592543E+00
0.69699578E-01
0.46468481E-01
0.32105930E-01
0.22289222E-01
0.15616910E-01
0.11033963E-01
0.78263804E-02
0.55850688E-02
0.39916318E-02
0.28484161E-02
0.20297009E-02
0.14473656E-02
0.10397577E-02
0.74116234E-03
0.52596699E-03
0.37395171E-03
0.26461465E-03
0.18737387E-03
0.13196246E-03
0.92583796E-04
0.65066473E-04
0.45657387E-04
0.31866759E-04
0.22063057E-04
0.15272677E-04
0.10571502E-04
0.72415141E-05
0.49616301E-05
0.33949982E-05
0.23027631E-05
0.15453417E-05
0.10389019E-05
0.69604295E-06
0.46345230E-06
0.30921146E-06
