atomic number =   40
effective nuclear charge =   40
electron count =   40
net charge =    0
basis set = approximate basis set limit (UGBS)      
exchange correlation functional = PW91PW91            
cutoff radius (picometer) =  300
number of shells =   50
prepared by = Thomas A. Manz      
prepared date = July 2010           
magnetization =    2
density in atomic units:
0.83730459E+04
0.11249396E+03
0.38446053E+02
0.21932114E+02
0.10221177E+02
0.40314994E+01
0.18081299E+01
0.11005766E+01
0.81003606E+00
0.64253289E+00
0.50427651E+00
0.38419905E+00
0.29143363E+00
0.21620230E+00
0.15960643E+00
0.11704646E+00
0.86033061E-01
0.64757548E-01
0.49239337E-01
0.38015179E-01
0.30056130E-01
0.24218621E-01
0.19897485E-01
0.16667593E-01
0.14099490E-01
0.12091654E-01
0.10437159E-01
0.91086235E-02
0.79602273E-02
0.69617089E-02
0.61128479E-02
0.53670960E-02
0.47213193E-02
0.41481885E-02
0.36405441E-02
0.32012684E-02
0.28135991E-02
0.24681906E-02
0.21593538E-02
0.18898633E-02
0.16554743E-02
0.14449826E-02
0.12617101E-02
0.11018163E-02
0.96028729E-03
0.83737506E-03
0.72904059E-03
0.63433219E-03
0.55151427E-03
0.47988899E-03
