atomic number =   40
effective nuclear charge =   40
electron count =   35
net charge =    5
basis set = approximate basis set limit (UGBS)      
exchange correlation functional = PW91                
cutoff radius (picometer) =  300
number of shells =   50
prepared by = Thomas A. Manz      
prepared date = 2011                
magnetization =    1
density in atomic units:
0.83736572E+04
0.11235497E+03
0.38345104E+02
0.21888107E+02
0.10207807E+02
0.40224485E+01
0.17855865E+01
0.10600343E+01
0.75278944E+00
0.57439822E+00
0.43062329E+00
0.31070077E+00
0.22158082E+00
0.15220866E+00
0.10250396E+00
0.67264751E-01
0.43106422E-01
0.27834864E-01
0.17609358E-01
0.11044913E-01
0.69113914E-02
0.43147514E-02
0.27078642E-02
0.17040914E-02
0.10728763E-02
0.67698990E-03
0.42945167E-03
0.27642757E-03
0.17676323E-03
0.11272544E-03
0.72269075E-04
0.46134337E-04
0.29527682E-04
0.18765779E-04
0.11854865E-04
0.74927962E-05
0.47278731E-05
0.29628309E-05
0.18402102E-05
0.11736360E-05
0.75368007E-06
0.49034969E-06
0.32001523E-06
0.21211261E-06
0.14137035E-06
0.96200253E-07
0.64802919E-07
0.44435893E-07
0.30982399E-07
0.22472831E-07
