atomic number =   51
effective nuclear charge =   51
electron count =   48
net charge =    3
basis set = approximate basis set limit (UGBS)      
exchange correlation functional = PW91                
cutoff radius (picometer) =  300
number of shells =   50
prepared by = Thomas A. Manz      
prepared date = 2011                
magnetization =    0
density in atomic units:
0.18345072E+05
0.15179471E+03
0.60704872E+02
0.19171358E+02
0.71042743E+01
0.46624742E+01
0.36104474E+01
0.26049521E+01
0.17232043E+01
0.10983590E+01
0.68024963E+00
0.42045379E+00
0.27350828E+00
0.18059421E+00
0.12306063E+00
0.85693613E-01
0.60778983E-01
0.44606749E-01
0.32947004E-01
0.24554631E-01
0.18445173E-01
0.13916047E-01
0.10566643E-01
0.80482764E-02
0.61378567E-02
0.46893735E-02
0.35975992E-02
0.27865488E-02
0.21540776E-02
0.16671559E-02
0.12978587E-02
0.10114892E-02
0.79218642E-03
0.62067463E-03
0.48707472E-03
0.38417743E-03
0.30391014E-03
0.24027412E-03
0.18937589E-03
0.14970487E-03
0.11862889E-03
0.93582421E-04
0.73937168E-04
0.58464353E-04
0.46109799E-04
0.36381280E-04
0.28612552E-04
0.22469636E-04
0.17614770E-04
0.13817546E-04
