atomic number =   32
effective nuclear charge =   32
electron count =   34
net charge =   -2
basis set = approximate basis set limit (UGBS)      
exchange correlation functional = PW91                
cutoff radius (picometer) =  300
number of shells =   50
prepared by = Thomas A. Manz      
prepared date = 2012                
magnetization =    2
density in atomic units:
0.40893984E+04
0.96957901E+02
0.23464693E+02
0.12549289E+02
0.87537975E+01
0.52768021E+01
0.29413240E+01
0.16447657E+01
0.91122037E+00
0.52630687E+00
0.31666988E+00
0.20314737E+00
0.14413257E+00
0.10793043E+00
0.85075520E-01
0.69211498E-01
0.57506938E-01
0.48901726E-01
0.41815680E-01
0.35974018E-01
0.31097658E-01
0.26966469E-01
0.23484593E-01
0.20496184E-01
0.17919626E-01
0.15687017E-01
0.13774258E-01
0.12153978E-01
0.10715478E-01
0.94560189E-02
0.83658444E-02
0.74027563E-02
0.65625063E-02
0.58143754E-02
0.51531564E-02
0.45727105E-02
0.40613264E-02
0.36028693E-02
0.31877572E-02
0.28231214E-02
0.25002514E-02
0.22078129E-02
0.19506210E-02
0.17227168E-02
0.15189862E-02
0.13394295E-02
0.11791139E-02
0.10368668E-02
0.91108266E-03
0.80076273E-03
