atomic number =   27
effective nuclear charge =   27
electron count =   25
net charge =    2
basis set = approximate basis set limit (UGBS)      
exchange correlation functional = PW91                
cutoff radius (picometer) =  300
number of shells =   50
prepared by = Thomas A. Manz      
prepared date = 2011                
magnetization =    3
density in atomic units:
0.23899497E+04
0.81569870E+02
0.21962721E+02
0.74663973E+01
0.49568820E+01
0.37107897E+01
0.25754189E+01
0.17014719E+01
0.10747751E+01
0.67115629E+00
0.41362280E+00
0.25367901E+00
0.16289997E+00
0.10513366E+00
0.69125965E-01
0.45852229E-01
0.30861896E-01
0.21450929E-01
0.15074314E-01
0.10667744E-01
0.77092811E-02
0.56248857E-02
0.41514542E-02
0.31219444E-02
0.23509932E-02
0.18025005E-02
0.13855139E-02
0.10849080E-02
0.85083925E-03
0.66694582E-03
0.52814494E-03
0.41901955E-03
0.33488928E-03
0.26806214E-03
0.21450531E-03
0.17347393E-03
0.14028337E-03
0.11342151E-03
0.91727896E-04
0.74326781E-04
0.60663551E-04
0.49304068E-04
0.40103627E-04
0.32746455E-04
0.26666157E-04
0.21780430E-04
0.17755141E-04
0.14480082E-04
0.11765290E-04
0.95752157E-05
