atomic number =   22
effective nuclear charge =   22
electron count =   21
net charge =    1
basis set = approximate basis set limit (UGBS)      
exchange correlation functional = PW91                
cutoff radius (picometer) =  300
number of shells =   50
prepared by = Thomas A. Manz      
prepared date = 2011                
magnetization =    3
density in atomic units:
0.12777589E+04
0.59144711E+02
0.22712791E+02
0.70856781E+01
0.27069211E+01
0.16962041E+01
0.13895952E+01
0.11296780E+01
0.86232907E+00
0.62914205E+00
0.44016919E+00
0.29915929E+00
0.20678657E+00
0.14155981E+00
0.97687498E-01
0.67630574E-01
0.47395270E-01
0.34285955E-01
0.25184739E-01
0.18767752E-01
0.14369131E-01
0.11193960E-01
0.88756438E-02
0.71948459E-02
0.58719795E-02
0.48784902E-02
0.40738443E-02
0.34534486E-02
0.29353863E-02
0.24985611E-02
0.21427236E-02
0.18413420E-02
0.15901144E-02
0.13746803E-02
0.11891285E-02
0.10342621E-02
0.90037083E-03
0.78384060E-03
0.68208884E-03
0.59464708E-03
0.52010530E-03
0.45391227E-03
0.39679193E-03
0.34745884E-03
0.30399475E-03
0.26643768E-03
0.23339667E-03
0.20453084E-03
0.17921845E-03
0.15728164E-03
