atomic number =   57
effective nuclear charge =   57
electron count =   57
net charge =    0
basis set = approximate basis set limit (UGBS)      
exchange correlation functional = PW91PW91            
cutoff radius (picometer) =  300
number of shells =   50
prepared by = Thomas A. Manz      
prepared date = July 2010           
magnetization =    1
density in atomic units:
0.26311592E+05
0.18420766E+03
0.60555614E+02
0.16708710E+02
0.97073183E+01
0.69441247E+01
0.42694726E+01
0.24387398E+01
0.13590645E+01
0.81818491E+00
0.54543722E+00
0.40119651E+00
0.31804347E+00
0.25507903E+00
0.20489925E+00
0.16260840E+00
0.12723999E+00
0.99900939E-01
0.77475518E-01
0.60045045E-01
0.46565488E-01
0.36301468E-01
0.28640246E-01
0.22750873E-01
0.18338062E-01
0.14900643E-01
0.12343311E-01
0.10389395E-01
0.88315383E-02
0.76113078E-02
0.66305911E-02
0.58234548E-02
0.51522409E-02
0.45801015E-02
0.40923646E-02
0.36637296E-02
0.32944700E-02
0.29640403E-02
0.26609090E-02
0.23936231E-02
0.21510054E-02
0.19292966E-02
0.17319502E-02
0.15533331E-02
0.13916467E-02
0.12462700E-02
0.11142994E-02
0.99486532E-03
0.88761398E-03
0.79169817E-03
