atomic number =    7
effective nuclear charge =    7
electron count =    8
net charge =   -1
basis set = approximate basis set limit (UGBS)      
exchange correlation functional = PW91PW91            
cutoff radius (picometer) =  300
number of shells =   50
prepared by = Thomas A. Manz      
prepared date = July 2010           
magnetization =    2
density in atomic units:
0.74520103E+02
0.16385344E+02
0.42877054E+01
0.14041595E+01
0.73169106E+00
0.53663683E+00
0.44583511E+00
0.37373397E+00
0.30521333E+00
0.24544081E+00
0.19321963E+00
0.15024902E+00
0.11830106E+00
0.92472613E-01
0.72556451E-01
0.56823626E-01
0.44485115E-01
0.35328642E-01
0.28001087E-01
0.22264972E-01
0.17783983E-01
0.14251382E-01
0.11485003E-01
0.92822490E-02
0.75148414E-02
0.60929200E-02
0.49572834E-02
0.40618409E-02
0.33214453E-02
0.27175252E-02
0.22321981E-02
0.18341760E-02
0.15123746E-02
0.12470594E-02
0.10297559E-02
0.85379777E-03
0.71001728E-03
0.59061137E-03
0.49066235E-03
0.40923190E-03
0.34249169E-03
0.28615567E-03
0.23992843E-03
0.20169588E-03
0.16958416E-03
0.14302359E-03
0.12067398E-03
0.10193916E-03
0.86190645E-04
0.73055315E-04
