atomic number =   34
effective nuclear charge =   34
electron count =   37
net charge =   -3
basis set = approximate basis set limit (UGBS)      
exchange correlation functional = PW91                
cutoff radius (picometer) =  300
number of shells =   50
prepared by = Thomas A. Manz      
prepared date = 2012                
magnetization =    1
density in atomic units:
0.49647085E+04
0.10135078E+03
0.25758764E+02
0.15293243E+02
0.98836937E+01
0.53344431E+01
0.26944361E+01
0.14059979E+01
0.75516748E+00
0.44765419E+00
0.29362664E+00
0.21304347E+00
0.16931592E+00
0.13903819E+00
0.11651437E+00
0.98023199E-01
0.82436144E-01
0.69851041E-01
0.58926370E-01
0.49686134E-01
0.41948725E-01
0.35456888E-01
0.30081529E-01
0.25586309E-01
0.21808738E-01
0.18642422E-01
0.16007770E-01
0.13850931E-01
0.11997288E-01
0.10423386E-01
0.91050640E-02
0.79747336E-02
0.70174714E-02
0.61871805E-02
0.54695765E-02
0.48551708E-02
0.43224371E-02
0.38518696E-02
0.34320236E-02
0.30664504E-02
0.27464684E-02
0.24579607E-02
0.22046471E-02
0.19807434E-02
0.17801485E-02
0.16029557E-02
0.14438401E-02
0.13018033E-02
0.11749264E-02
0.10624602E-02
