atomic number =    7
effective nuclear charge =    7
electron count =    3
net charge =    4
basis set = approximate basis set limit (UGBS)      
exchange correlation functional = PW91PW91            
cutoff radius (picometer) =  300
number of shells =   50
prepared by = Thomas A. Manz      
prepared date = July 2010           
magnetization =    1
density in atomic units:
0.74115738E+02
0.16055428E+02
0.39057586E+01
0.99754471E+00
0.33497292E+00
0.17454915E+00
0.12886395E+00
0.10228426E+00
0.78382179E-01
0.58174692E-01
0.41553441E-01
0.29016266E-01
0.20615838E-01
0.14523433E-01
0.10306680E-01
0.73132054E-02
0.51888698E-02
0.37566365E-02
0.27094244E-02
0.19590682E-02
0.14224885E-02
0.10349428E-02
0.75701624E-03
0.55481185E-03
0.40650365E-03
0.29788306E-03
0.21884109E-03
0.16217632E-03
0.11960725E-03
0.88090390E-04
0.65186206E-04
0.48161575E-04
0.35693349E-04
0.26405334E-04
0.19543075E-04
0.14522965E-04
0.10819164E-04
0.80583141E-05
0.59812533E-05
0.44529706E-05
0.33082099E-05
0.24362000E-05
0.17865254E-05
0.13236739E-05
0.97885982E-06
0.72392908E-06
0.53367989E-06
0.39204005E-06
0.28676749E-06
0.20941093E-06
