atomic number =   67
effective nuclear charge =   67
electron count =   66
net charge =    1
basis set = approximate basis set limit (UGBS)      
exchange correlation functional = PW91                
cutoff radius (picometer) =  300
number of shells =   50
prepared by = Thomas A. Manz      
prepared date = 2011                
magnetization =    4
density in atomic units:
0.44392617E+05
0.23281911E+03
0.56395115E+02
0.25738697E+02
0.17306288E+02
0.92642097E+01
0.45842414E+01
0.24946837E+01
0.15065527E+01
0.10119647E+01
0.71609730E+00
0.51405191E+00
0.37760055E+00
0.27455166E+00
0.19865932E+00
0.14264384E+00
0.10147870E+00
0.73493600E-01
0.52995399E-01
0.38481131E-01
0.28325401E-01
0.21113852E-01
0.16040651E-01
0.12418165E-01
0.97728660E-02
0.78284396E-02
0.63878335E-02
0.53140861E-02
0.44642054E-02
0.37834630E-02
0.32407823E-02
0.27889861E-02
0.24149322E-02
0.20948742E-02
0.18195525E-02
0.15854147E-02
0.13827747E-02
0.12041935E-02
0.10458325E-02
0.90866844E-03
0.78966812E-03
0.68358512E-03
0.59166935E-03
0.51184429E-03
0.44156227E-03
0.38085584E-03
0.32764365E-03
0.28137583E-03
0.24128526E-03
0.20688892E-03
