atomic number =   21
effective nuclear charge =   21
electron count =   17
net charge =    4
basis set = approximate basis set limit (UGBS)      
exchange correlation functional = PW91                
cutoff radius (picometer) =  300
number of shells =   50
prepared by = Thomas A. Manz      
prepared date = 2011                
magnetization =    1
density in atomic units:
0.11141692E+04
0.54090588E+02
0.22346310E+02
0.73751726E+01
0.25871980E+01
0.13521328E+01
0.10531574E+01
0.87039006E+00
0.67635179E+00
0.49697709E+00
0.34365779E+00
0.22702746E+00
0.15001151E+00
0.96169338E-01
0.61025940E-01
0.38057689E-01
0.23335015E-01
0.14542051E-01
0.89159505E-02
0.54396200E-02
0.33190080E-02
0.20230487E-02
0.12406639E-02
0.76291186E-03
0.46929746E-03
0.28910465E-03
0.17898013E-03
0.11245692E-03
0.70155220E-04
0.43617703E-04
0.27226084E-04
0.16800364E-04
0.10396511E-04
0.64268215E-05
0.39601937E-05
0.24456838E-05
0.14936894E-05
0.90975954E-06
0.54784891E-06
0.32934759E-06
0.19683606E-06
0.11825847E-06
0.71289882E-07
0.43616950E-07
0.28215492E-07
0.18600559E-07
0.14011384E-07
0.94717612E-08
0.61404135E-08
0.40045918E-08
