atomic number =   32
effective nuclear charge =   32
electron count =   35
net charge =   -3
basis set = approximate basis set limit (UGBS)      
exchange correlation functional = PW91                
cutoff radius (picometer) =  300
number of shells =   50
prepared by = Thomas A. Manz      
prepared date = 2012                
magnetization =    1
density in atomic units:
0.40892339E+04
0.96955589E+02
0.23465403E+02
0.12549053E+02
0.87536049E+01
0.52769904E+01
0.29414043E+01
0.16444924E+01
0.91059816E+00
0.52548730E+00
0.31582296E+00
0.20242701E+00
0.14363362E+00
0.10771706E+00
0.85161977E-01
0.69591515E-01
0.58161814E-01
0.49784917E-01
0.42904388E-01
0.37229095E-01
0.32496449E-01
0.28481679E-01
0.25089096E-01
0.22178056E-01
0.19653745E-01
0.17464740E-01
0.15572693E-01
0.13961388E-01
0.12517490E-01
0.11235141E-01
0.10111656E-01
0.91030644E-02
0.82085477E-02
0.73968614E-02
0.66626966E-02
0.60073617E-02
0.54155407E-02
0.48728748E-02
0.43718936E-02
0.39215041E-02
0.35162845E-02
0.31414055E-02
0.28049960E-02
0.25022270E-02
0.22265797E-02
0.19801825E-02
0.17569769E-02
0.15566039E-02
0.13770520E-02
0.12180506E-02
