atomic number =    7
effective nuclear charge =    7
electron count =    9
net charge =   -2
basis set = approximate basis set limit (UGBS)      
exchange correlation functional = PW91PW91            
cutoff radius (picometer) =  300
number of shells =   50
prepared by = Thomas A. Manz      
prepared date = July 2010           
magnetization =    1
density in atomic units:
0.74361282E+02
0.16368126E+02
0.42946033E+01
0.14105235E+01
0.73457563E+00
0.53781271E+00
0.44738257E+00
0.37662220E+00
0.30965713E+00
0.25125092E+00
0.20009343E+00
0.15785196E+00
0.12628193E+00
0.10058670E+00
0.80605187E-01
0.64647086E-01
0.51956255E-01
0.42383224E-01
0.34571026E-01
0.28324250E-01
0.23317892E-01
0.19264504E-01
0.15999701E-01
0.13316780E-01
0.11099070E-01
0.92534926E-02
0.77339471E-02
0.64965812E-02
0.54418370E-02
0.45564403E-02
0.38238149E-02
0.32065676E-02
0.26945686E-02
0.22623686E-02
0.19007007E-02
0.16013917E-02
0.13523244E-02
0.11417916E-02
0.96244895E-03
0.81401382E-03
0.69044030E-03
0.58479270E-03
0.49698784E-03
0.42338372E-03
0.36085161E-03
0.30842228E-03
0.26376033E-03
0.22584065E-03
0.19358905E-03
0.16634009E-03
