atomic number =   67
effective nuclear charge =   67
electron count =   67
net charge =    0
basis set = approximate basis set limit (UGBS)      
exchange correlation functional = PW91PW91            
cutoff radius (picometer) =  300
number of shells =   50
prepared by = Thomas A. Manz      
prepared date = July 2010           
magnetization =    3
density in atomic units:
0.44393758E+05
0.23262143E+03
0.56527786E+02
0.25651287E+02
0.17338205E+02
0.92406349E+01
0.45870128E+01
0.25030222E+01
0.15046587E+01
0.10167618E+01
0.71559137E+00
0.51278865E+00
0.37722799E+00
0.27341110E+00
0.19851139E+00
0.14245375E+00
0.10193721E+00
0.74180484E-01
0.54069143E-01
0.39867129E-01
0.29868687E-01
0.22845173E-01
0.17910369E-01
0.14348273E-01
0.11754287E-01
0.98287556E-02
0.83798934E-02
0.72875815E-02
0.63946513E-02
0.56633358E-02
0.50541493E-02
0.45299912E-02
0.40748953E-02
0.36675546E-02
0.33034182E-02
0.29780606E-02
0.26851483E-02
0.24168373E-02
0.21682433E-02
0.19451553E-02
0.17441048E-02
0.15582549E-02
0.13917449E-02
0.12417465E-02
0.11055782E-02
0.98387944E-03
0.87376853E-03
0.77499024E-03
0.68648678E-03
0.60816738E-03
