atomic number =   70
effective nuclear charge =   70
electron count =   71
net charge =   -1
basis set = approximate basis set limit (UGBS)      
exchange correlation functional = PW91                
cutoff radius (picometer) =  300
number of shells =   50
prepared by = Thomas A. Manz      
prepared date = 2012                
magnetization =    1
density in atomic units:
0.51113680E+05
0.24488358E+03
0.58210854E+02
0.30468134E+02
0.19140833E+02
0.94781027E+01
0.45824804E+01
0.25325632E+01
0.15585624E+01
0.10551838E+01
0.73588777E+00
0.51605850E+00
0.37028623E+00
0.26251778E+00
0.18623862E+00
0.13133484E+00
0.92390403E-01
0.66515222E-01
0.48077136E-01
0.35304166E-01
0.26505107E-01
0.20380531E-01
0.16128307E-01
0.13106281E-01
0.10914871E-01
0.92981113E-02
0.80882525E-02
0.71725957E-02
0.64262603E-02
0.58106440E-02
0.52975025E-02
0.48515089E-02
0.44623185E-02
0.41110702E-02
0.37937299E-02
0.35069282E-02
0.32458305E-02
0.30032473E-02
0.27749224E-02
0.25664670E-02
0.23739513E-02
0.21922609E-02
0.20257535E-02
0.18714999E-02
0.17277241E-02
0.15952011E-02
0.14715159E-02
0.13564484E-02
0.12499219E-02
0.11517935E-02
