atomic number =   35
effective nuclear charge =   35
electron count =   34
net charge =    1
basis set = approximate basis set limit (UGBS)      
exchange correlation functional = PW91                
cutoff radius (picometer) =  300
number of shells =   50
prepared by = Thomas A. Manz      
prepared date = 2011                
magnetization =    2
density in atomic units:
0.54488789E+04
0.10330514E+03
0.27318562E+02
0.16648643E+02
0.10262910E+02
0.52340932E+01
0.25234413E+01
0.12850120E+01
0.69358295E+00
0.42565602E+00
0.29245543E+00
0.21923287E+00
0.17539701E+00
0.14194015E+00
0.11546416E+00
0.93258992E-01
0.74712113E-01
0.60154367E-01
0.47990400E-01
0.38154915E-01
0.30305162E-01
0.24037823E-01
0.19103598E-01
0.15181286E-01
0.12052353E-01
0.95639490E-02
0.76035485E-02
0.60850470E-02
0.48537501E-02
0.38700800E-02
0.30977644E-02
0.24791663E-02
0.19910831E-02
0.15985920E-02
0.12849106E-02
0.10373631E-02
0.83989865E-03
0.67993021E-03
0.54923538E-03
0.44532196E-03
0.36225500E-03
0.29396810E-03
0.23930210E-03
0.19525338E-03
0.15923765E-03
0.13024203E-03
0.10652895E-03
0.87194829E-04
0.71411945E-04
0.58632901E-04
