atomic number =   34
effective nuclear charge =   34
electron count =   35
net charge =   -1
basis set = approximate basis set limit (UGBS)      
exchange correlation functional = PW91                
cutoff radius (picometer) =  300
number of shells =   50
prepared by = Thomas A. Manz      
prepared date = 2012                
magnetization =    1
density in atomic units:
0.49646768E+04
0.10135103E+03
0.25759783E+02
0.15293392E+02
0.98837318E+01
0.53345513E+01
0.26945775E+01
0.14060816E+01
0.75515777E+00
0.44753239E+00
0.29336262E+00
0.21259625E+00
0.16865806E+00
0.13813020E+00
0.11533937E+00
0.96571699E-01
0.80720067E-01
0.67902312E-01
0.56768309E-01
0.47344483E-01
0.39457936E-01
0.32842364E-01
0.27369350E-01
0.22803232E-01
0.18976191E-01
0.15784521E-01
0.13144732E-01
0.11002416E-01
0.91825575E-02
0.76586409E-02
0.64058322E-02
0.53551868E-02
0.44880947E-02
0.37588235E-02
0.31492603E-02
0.26470432E-02
0.22287676E-02
0.18752993E-02
0.15745376E-02
0.13252974E-02
0.11180725E-02
0.94075780E-03
0.79326250E-03
0.66989212E-03
0.56519033E-03
0.47774543E-03
0.40351413E-03
0.34091080E-03
0.28806279E-03
0.24381862E-03
