atomic number =   40
effective nuclear charge =   40
electron count =   39
net charge =    1
basis set = approximate basis set limit (UGBS)      
exchange correlation functional = PW91                
cutoff radius (picometer) =  300
number of shells =   50
prepared by = Thomas A. Manz      
prepared date = 2011                
magnetization =    3
density in atomic units:
0.83725254E+04
0.11248698E+03
0.38444546E+02
0.21931845E+02
0.10221144E+02
0.40305967E+01
0.18066058E+01
0.10989350E+01
0.80900383E+00
0.64186919E+00
0.50404239E+00
0.38371202E+00
0.29054713E+00
0.21484661E+00
0.15768375E+00
0.11451446E+00
0.83123259E-01
0.61518617E-01
0.45841869E-01
0.34434944E-01
0.26452392E-01
0.20621980E-01
0.16334822E-01
0.13231035E-01
0.10781866E-01
0.89577697E-02
0.74762488E-02
0.63407919E-02
0.53938651E-02
0.45920899E-02
0.39403951E-02
0.33874593E-02
0.29263005E-02
0.25296884E-02
0.21861151E-02
0.18999041E-02
0.16509377E-02
0.14336710E-02
0.12440265E-02
0.10807578E-02
0.94196066E-03
0.81853737E-03
0.71197824E-03
0.62028517E-03
0.53957198E-03
0.47010815E-03
0.40918292E-03
0.35624343E-03
0.31001194E-03
0.27019577E-03
