atomic number =   40
effective nuclear charge =   40
electron count =   38
net charge =    2
basis set = approximate basis set limit (UGBS)      
exchange correlation functional = PW91                
cutoff radius (picometer) =  300
number of shells =   50
prepared by = Thomas A. Manz      
prepared date = 2011                
magnetization =    2
density in atomic units:
0.83714404E+04
0.11249748E+03
0.38445507E+02
0.21930269E+02
0.10221621E+02
0.40284095E+01
0.18021187E+01
0.10946006E+01
0.80698431E+00
0.64219332E+00
0.50653714E+00
0.38694930E+00
0.29367787E+00
0.21731164E+00
0.15905215E+00
0.11456715E+00
0.82079485E-01
0.59507750E-01
0.43124691E-01
0.31101096E-01
0.22781176E-01
0.16746929E-01
0.12373153E-01
0.93333283E-02
0.69955601E-02
0.53711981E-02
0.41053519E-02
0.32106906E-02
0.25174471E-02
0.19673309E-02
0.15613101E-02
0.12445918E-02
0.10040263E-02
0.81380567E-03
0.65934903E-03
0.54407417E-03
0.44821625E-03
0.36985957E-03
0.30676535E-03
0.25488724E-03
0.21445274E-03
0.17972101E-03
0.15076263E-03
0.12730296E-03
0.10718867E-03
0.90731985E-04
0.76728000E-04
0.65098640E-04
0.55155706E-04
0.46921417E-04
