atomic number =   25
effective nuclear charge =   25
electron count =   27
net charge =   -2
basis set = approximate basis set limit (UGBS)      
exchange correlation functional = PW91                
cutoff radius (picometer) =  300
number of shells =   50
prepared by = Thomas A. Manz      
prepared date = 2011                
magnetization =    7
density in atomic units:
0.18835808E+04
0.73472450E+02
0.22421810E+02
0.67149830E+01
0.37003794E+01
0.28458068E+01
0.21534555E+01
0.15345024E+01
0.10282441E+01
0.67422146E+00
0.43201414E+00
0.27599645E+00
0.18452221E+00
0.12518626E+00
0.87965779E-01
0.63788213E-01
0.47821939E-01
0.37623405E-01
0.30362099E-01
0.25162417E-01
0.21322131E-01
0.18380484E-01
0.16086426E-01
0.14221228E-01
0.12673454E-01
0.11357575E-01
0.10241473E-01
0.92930468E-02
0.84425388E-02
0.76871701E-02
0.70191245E-02
0.64148074E-02
0.58728871E-02
0.53761182E-02
0.49242144E-02
0.45132739E-02
0.41403379E-02
0.37949267E-02
0.34707815E-02
0.31765930E-02
0.29057472E-02
0.26519536E-02
0.24210382E-02
0.22084911E-02
0.20120179E-02
0.18323410E-02
0.16661629E-02
0.15129891E-02
0.13727716E-02
0.12451001E-02
