atomic number =   37
effective nuclear charge =   37
electron count =   35
net charge =    2
basis set = approximate basis set limit (UGBS)      
exchange correlation functional = PW91PW91            
cutoff radius (picometer) =  300
number of shells =   50
prepared by = Thomas A. Manz      
prepared date = July 2010           
magnetization =    1
density in atomic units:
0.65142061E+04
0.10688044E+03
0.31183414E+02
0.19177969E+02
0.10628957E+02
0.48365250E+01
0.21667566E+01
0.11144361E+01
0.66765261E+00
0.47361714E+00
0.36544773E+00
0.28947943E+00
0.23216951E+00
0.18251547E+00
0.14157508E+00
0.10763803E+00
0.80409050E-01
0.60200501E-01
0.44365730E-01
0.32439731E-01
0.23621257E-01
0.17120728E-01
0.12410365E-01
0.89748874E-02
0.64659459E-02
0.46459883E-02
0.33401968E-02
0.24206801E-02
0.17438136E-02
0.12539468E-02
0.90627803E-03
0.65464037E-03
0.47534410E-03
0.34513112E-03
0.25107621E-03
0.18395527E-03
0.13532322E-03
0.99568868E-04
0.73014111E-04
0.53812037E-04
0.39770151E-04
0.29222751E-04
0.21473359E-04
0.15779844E-04
0.11539573E-04
0.84371914E-05
0.61308569E-05
0.44308258E-05
0.31874315E-05
0.22835206E-05
