atomic number =    7
effective nuclear charge =    7
electron count =    5
net charge =    2
basis set = approximate basis set limit (UGBS)      
exchange correlation functional = PW91PW91            
cutoff radius (picometer) =  300
number of shells =   50
prepared by = Thomas A. Manz      
prepared date = July 2010           
magnetization =    1
density in atomic units:
0.75350037E+02
0.16343975E+02
0.40701919E+01
0.11801111E+01
0.53686535E+00
0.37312660E+00
0.30668384E+00
0.25299278E+00
0.20036508E+00
0.15447097E+00
0.11541746E+00
0.84652595E-01
0.62971644E-01
0.46414174E-01
0.34362569E-01
0.25382198E-01
0.18722950E-01
0.14046995E-01
0.10499283E-01
0.78673363E-02
0.59199505E-02
0.44665723E-02
0.33899273E-02
0.25803456E-02
0.19670518E-02
0.15022060E-02
0.11522596E-02
0.89242263E-03
0.68986579E-03
0.53399673E-03
0.41591455E-03
0.32441758E-03
0.25444300E-03
0.19973847E-03
0.15715427E-03
0.12438081E-03
0.98777040E-04
0.78481935E-04
0.62199644E-04
0.49520331E-04
0.39604900E-04
0.31601652E-04
0.25292820E-04
0.20282825E-04
0.16248767E-04
0.13042649E-04
0.10441919E-04
0.84072972E-05
0.68641548E-05
0.56113677E-05
