atomic number =   19
effective nuclear charge =   19
electron count =   20
net charge =   -1
basis set = approximate basis set limit (UGBS)      
exchange correlation functional = PW91PW91            
cutoff radius (picometer) =  300
number of shells =   50
prepared by = Thomas A. Manz      
prepared date = July 2010           
magnetization =    0
density in atomic units:
0.83379425E+03
0.44010056E+02
0.20735287E+02
0.82364979E+01
0.30230434E+01
0.12268015E+01
0.76645380E+00
0.63696307E+00
0.55122101E+00
0.46442312E+00
0.37300041E+00
0.28804222E+00
0.22069037E+00
0.16504866E+00
0.12242945E+00
0.89710847E-01
0.65177679E-01
0.48007373E-01
0.35179976E-01
0.25896227E-01
0.19251218E-01
0.14478893E-01
0.11088624E-01
0.86502293E-02
0.68828762E-02
0.56015984E-02
0.46749366E-02
0.40101768E-02
0.35055827E-02
0.31228883E-02
0.28327967E-02
0.26034547E-02
0.24201728E-02
0.22669428E-02
0.21358589E-02
0.20222159E-02
0.19203931E-02
0.18257201E-02
0.17358599E-02
0.16516049E-02
0.15716874E-02
0.14931796E-02
0.14180371E-02
0.13455758E-02
0.12746694E-02
0.12064574E-02
0.11397700E-02
0.10751485E-02
0.10125089E-02
0.95260079E-03
