atomic number =   48
effective nuclear charge =   48
electron count =   49
net charge =   -1
basis set = approximate basis set limit (UGBS)      
exchange correlation functional = PW91                
cutoff radius (picometer) =  300
number of shells =   50
prepared by = Thomas A. Manz      
prepared date = 2011                
magnetization =    1
density in atomic units:
0.15074696E+05
0.13776561E+03
0.57131653E+02
0.21222948E+02
0.72202182E+01
0.36783617E+01
0.28203721E+01
0.22274649E+01
0.16362190E+01
0.11479498E+01
0.77398562E+00
0.51346928E+00
0.35140425E+00
0.24123728E+00
0.16929713E+00
0.12085693E+00
0.87916031E-01
0.66365466E-01
0.50815672E-01
0.39633110E-01
0.31466145E-01
0.25347255E-01
0.20730503E-01
0.17145246E-01
0.14310067E-01
0.12037574E-01
0.10215680E-01
0.87600481E-02
0.75323824E-02
0.65065832E-02
0.56554801E-02
0.49322010E-02
0.43227216E-02
0.37972629E-02
0.33473787E-02
0.29613441E-02
0.26303313E-02
0.23401070E-02
0.20810617E-02
0.18575484E-02
0.16602143E-02
0.14832154E-02
0.13288611E-02
0.11914785E-02
0.10691715E-02
0.96059637E-03
0.86310756E-03
0.77534281E-03
0.69697329E-03
0.62697503E-03
