atomic number =   52
effective nuclear charge =   52
electron count =   48
net charge =    4
basis set = approximate basis set limit (UGBS)      
exchange correlation functional = PW91                
cutoff radius (picometer) =  300
number of shells =   50
prepared by = Thomas A. Manz      
prepared date = 2011                
magnetization =    0
density in atomic units:
0.19536973E+05
0.15689064E+03
0.61312603E+02
0.18509583E+02
0.72853565E+01
0.50578322E+01
0.38277948E+01
0.26602652E+01
0.16953906E+01
0.10460249E+01
0.63030893E+00
0.38144225E+00
0.24480963E+00
0.16015358E+00
0.10836557E+00
0.74921131E-01
0.52659702E-01
0.38224939E-01
0.27844451E-01
0.20416826E-01
0.15060620E-01
0.11140250E-01
0.82863597E-02
0.61786533E-02
0.46109310E-02
0.34473285E-02
0.25893999E-02
0.19660525E-02
0.14906888E-02
0.11327143E-02
0.86699298E-03
0.66498382E-03
0.51315204E-03
0.39649452E-03
0.30703921E-03
0.23909910E-03
0.18676967E-03
0.14575735E-03
0.11332559E-03
0.88316701E-04
0.68930734E-04
0.53461634E-04
0.41459236E-04
0.32094220E-04
0.24697205E-04
0.18972682E-04
0.14489809E-04
0.11009287E-04
0.83270652E-05
0.62839536E-05
