atomic number =    7
effective nuclear charge =    7
electron count =    7
net charge =    0
basis set = approximate basis set limit (UGBS)      
exchange correlation functional = PW91PW91            
cutoff radius (picometer) =  300
number of shells =   50
prepared by = Thomas A. Manz      
prepared date = July 2010           
magnetization =    3
density in atomic units:
0.74748459E+02
0.16406403E+02
0.42731819E+01
0.13906782E+01
0.72369289E+00
0.53158653E+00
0.44079810E+00
0.36734870E+00
0.29715797E+00
0.23596899E+00
0.18275018E+00
0.13925523E+00
0.10722107E+00
0.81628174E-01
0.62177662E-01
0.47090247E-01
0.35509199E-01
0.27127752E-01
0.20608446E-01
0.15664380E-01
0.11938194E-01
0.91114594E-02
0.69868616E-02
0.53691589E-02
0.41284328E-02
0.31783758E-02
0.24555770E-02
0.19138145E-02
0.14879165E-02
0.11575331E-02
0.90543675E-03
0.70873101E-03
0.55738847E-03
0.43857077E-03
0.34571157E-03
0.27397627E-03
0.21781343E-03
0.17314595E-03
0.13731718E-03
0.10933507E-03
0.87351669E-04
0.69551083E-04
0.55508903E-04
0.44375258E-04
0.35419911E-04
0.28319726E-04
0.22574488E-04
0.17935672E-04
0.14230042E-04
0.11308283E-04
