atomic number =   52
effective nuclear charge =   52
electron count =   46
net charge =    6
basis set = approximate basis set limit (UGBS)      
exchange correlation functional = PW91                
cutoff radius (picometer) =  300
number of shells =   50
prepared by = Thomas A. Manz      
prepared date = 2011                
magnetization =    0
density in atomic units:
0.19525012E+05
0.15694307E+03
0.61263630E+02
0.18499523E+02
0.72467356E+01
0.50375571E+01
0.38409839E+01
0.26830533E+01
0.17051785E+01
0.10338498E+01
0.59759349E+00
0.33552626E+00
0.19397303E+00
0.11003085E+00
0.62495407E-01
0.35207555E-01
0.19629339E-01
0.11271668E-01
0.64006117E-02
0.36327997E-02
0.20668819E-02
0.11741193E-02
0.67042746E-03
0.38342591E-03
0.21934324E-03
0.12613357E-03
0.73329087E-04
0.43680782E-04
0.26031574E-04
0.15580865E-04
0.94126053E-05
0.56386516E-05
0.33671668E-05
0.19901399E-05
0.11394652E-05
0.63955326E-06
0.33843159E-06
0.19373954E-06
0.13947539E-06
0.99315812E-07
0.64312701E-07
0.39905419E-07
0.26634526E-07
0.18093367E-07
0.11482362E-07
0.73818995E-08
0.45613673E-08
0.27112950E-08
0.16718251E-08
0.10633608E-08
