atomic number =   47
effective nuclear charge =   47
electron count =   45
net charge =    2
basis set = approximate basis set limit (UGBS)      
exchange correlation functional = PW91PW91            
cutoff radius (picometer) =  300
number of shells =   50
prepared by = Thomas A. Manz      
prepared date = July 2010           
magnetization =    1
density in atomic units:
0.14080333E+05
0.13358403E+03
0.55377979E+02
0.21817915E+02
0.74612417E+01
0.34607720E+01
0.25478117E+01
0.20423627E+01
0.15423230E+01
0.11077131E+01
0.75973719E+00
0.50665170E+00
0.34445888E+00
0.23193642E+00
0.15743496E+00
0.10705462E+00
0.73194847E-01
0.51421341E-01
0.36247630E-01
0.25732737E-01
0.18509401E-01
0.13423577E-01
0.98476186E-02
0.73079178E-02
0.54496056E-02
0.41047726E-02
0.31127280E-02
0.23956341E-02
0.18447886E-02
0.14233404E-02
0.11070578E-02
0.86275069E-03
0.67653880E-03
0.53120439E-03
0.41787094E-03
0.33113715E-03
0.26321286E-03
0.20935237E-03
0.16634536E-03
0.13268820E-03
0.10631623E-03
0.84882508E-04
0.67931382E-04
0.54487966E-04
0.43613913E-04
0.34968529E-04
0.28004597E-04
0.22430318E-04
0.17954530E-04
0.14381316E-04
