atomic number =   54
effective nuclear charge =   54
electron count =   53
net charge =    1
basis set = approximate basis set limit (UGBS)      
exchange correlation functional = PW91                
cutoff radius (picometer) =  300
number of shells =   50
prepared by = Thomas A. Manz      
prepared date = 2012                
magnetization =    1
density in atomic units:
0.22076834E+05
0.16756583E+03
0.61749092E+02
0.17418325E+02
0.80159702E+01
0.59023829E+01
0.41464267E+01
0.26454425E+01
0.15675560E+01
0.92947012E+00
0.56708533E+00
0.37124255E+00
0.27047741E+00
0.20789526E+00
0.16642183E+00
0.13526033E+00
0.11027862E+00
0.90606198E-01
0.73730506E-01
0.59587870E-01
0.47883783E-01
0.38227040E-01
0.30416328E-01
0.24080768E-01
0.18955806E-01
0.14851100E-01
0.11612739E-01
0.91148363E-02
0.71071270E-02
0.55240691E-02
0.43016523E-02
0.33414930E-02
0.26007688E-02
0.20195653E-02
0.15671694E-02
0.12201336E-02
0.95142168E-03
0.74045156E-03
0.57375070E-03
0.44567950E-03
0.34694720E-03
0.26873223E-03
0.20859636E-03
0.16210189E-03
0.12563694E-03
0.97514217E-04
0.75522265E-04
0.58440914E-04
0.45183471E-04
0.34987865E-04
