atomic number =   49
effective nuclear charge =   49
electron count =   45
net charge =    4
basis set = approximate basis set limit (UGBS)      
exchange correlation functional = PW91                
cutoff radius (picometer) =  300
number of shells =   50
prepared by = Thomas A. Manz      
prepared date = 2011                
magnetization =    1
density in atomic units:
0.16110875E+05
0.14215195E+03
0.58560516E+02
0.20554962E+02
0.70601659E+01
0.39316945E+01
0.30689726E+01
0.23625379E+01
0.16668750E+01
0.11192954E+01
0.71480274E+00
0.44484720E+00
0.28284851E+00
0.17703684E+00
0.11136003E+00
0.69842078E-01
0.43512519E-01
0.27867762E-01
0.17701171E-01
0.11317963E-01
0.72601610E-02
0.46845004E-02
0.30589474E-02
0.20053873E-02
0.13269371E-02
0.88103319E-03
0.59339497E-03
0.40622972E-03
0.27808471E-03
0.19118546E-03
0.13234308E-03
0.91571514E-04
0.63585307E-04
0.44007502E-04
0.30410161E-04
0.21041405E-04
0.14570942E-04
0.10032063E-04
0.68501531E-05
0.46776026E-05
0.31857755E-05
0.21247572E-05
0.13997386E-05
0.91736609E-06
0.59961940E-06
0.43238833E-06
0.30770255E-06
0.21308752E-06
0.14833002E-06
0.10467194E-06
