atomic number =   32
effective nuclear charge =   32
electron count =   30
net charge =    2
basis set = approximate basis set limit (UGBS)      
exchange correlation functional = PW91                
cutoff radius (picometer) =  300
number of shells =   50
prepared by = Thomas A. Manz      
prepared date = 2012                
magnetization =    0
density in atomic units:
0.40906155E+04
0.96983879E+02
0.23480188E+02
0.12547160E+02
0.87510004E+01
0.52779431E+01
0.29456298E+01
0.16497712E+01
0.91468543E+00
0.52673584E+00
0.31319648E+00
0.19566754E+00
0.13326523E+00
0.94173744E-01
0.69138251E-01
0.51749438E-01
0.39155897E-01
0.30238746E-01
0.23283644E-01
0.17919945E-01
0.13783561E-01
0.10570635E-01
0.81044221E-02
0.61951303E-02
0.47141504E-02
0.35735001E-02
0.27054218E-02
0.20580434E-02
0.15541242E-02
0.11688927E-02
0.88048726E-03
0.66073035E-03
0.49631164E-03
0.37136124E-03
0.27724577E-03
0.20745452E-03
0.15530587E-03
0.11585388E-03
0.85868407E-04
0.63728512E-04
0.47337850E-04
0.34895624E-04
0.25745154E-04
0.18995701E-04
0.13930123E-04
0.10212001E-04
0.74447289E-05
0.54065395E-05
0.39218125E-05
0.28437701E-05
