atomic number =   54
effective nuclear charge =   54
electron count =   47
net charge =    7
basis set = approximate basis set limit (UGBS)      
exchange correlation functional = PW91                
cutoff radius (picometer) =  300
number of shells =   50
prepared by = Thomas A. Manz      
prepared date = 2012                
magnetization =    1
density in atomic units:
0.22074428E+05
0.16752719E+03
0.61662148E+02
0.17387829E+02
0.79266520E+01
0.58466253E+01
0.41487513E+01
0.26654165E+01
0.15681462E+01
0.89487588E+00
0.49752933E+00
0.27671820E+00
0.16374493E+00
0.98188147E-01
0.60611654E-01
0.37988860E-01
0.24018412E-01
0.15684221E-01
0.10198440E-01
0.66330875E-02
0.43127392E-02
0.27895151E-02
0.18009229E-02
0.11546900E-02
0.73264109E-03
0.46032909E-03
0.28740356E-03
0.18025204E-03
0.11124720E-03
0.67929905E-04
0.41509793E-04
0.25159345E-04
0.15276548E-04
0.92388482E-05
0.55605728E-05
0.33333897E-05
0.19937543E-05
0.12028930E-05
0.71973926E-06
0.43043551E-06
0.25759599E-06
0.14912152E-06
0.85161396E-07
0.46342752E-07
0.22907630E-07
0.17100588E-07
0.99708970E-08
0.73787176E-08
0.74809048E-08
0.46668354E-08
