atomic number =   33
effective nuclear charge =   33
electron count =   28
net charge =    5
basis set = approximate basis set limit (UGBS)      
exchange correlation functional = PW91                
cutoff radius (picometer) =  300
number of shells =   50
prepared by = Thomas A. Manz      
prepared date = 2012                
magnetization =    0
density in atomic units:
0.45066108E+04
0.99269180E+02
0.24588310E+02
0.13869287E+02
0.93498507E+01
0.53714776E+01
0.28580391E+01
0.15199032E+01
0.78438252E+00
0.40818164E+00
0.20954749E+00
0.10698785E+00
0.57723459E-01
0.30967506E-01
0.16815444E-01
0.91245249E-02
0.49213520E-02
0.27494323E-02
0.15225656E-02
0.84421266E-03
0.46923434E-03
0.25979753E-03
0.14384757E-03
0.79155448E-04
0.43049662E-04
0.23260958E-04
0.12517581E-04
0.67843225E-05
0.36166350E-05
0.18959186E-05
0.10000157E-05
0.51900412E-06
0.27021960E-06
0.15167419E-06
0.93780045E-07
0.54596327E-07
0.32364451E-07
0.19899609E-07
0.12382893E-07
0.80278761E-08
0.53439528E-08
0.35984349E-08
0.24636937E-08
0.17350164E-08
0.11804819E-08
0.77855172E-09
0.51202509E-09
0.32468481E-09
0.20478004E-09
0.12427404E-09
