atomic number =    7
effective nuclear charge =    7
electron count =   11
net charge =   -4
basis set = approximate basis set limit (UGBS)      
exchange correlation functional = PW91PW91            
cutoff radius (picometer) =  300
number of shells =   50
prepared by = Thomas A. Manz      
prepared date = July 2010           
magnetization =    1
density in atomic units:
0.74435226E+02
0.16368044E+02
0.42805343E+01
0.13962082E+01
0.72307026E+00
0.52954859E+00
0.44112608E+00
0.37159747E+00
0.30584595E+00
0.24860229E+00
0.19853365E+00
0.15714753E+00
0.12618788E+00
0.10099946E+00
0.81462532E-01
0.65946795E-01
0.53719584E-01
0.44589955E-01
0.37219804E-01
0.31370737E-01
0.26711738E-01
0.22936402E-01
0.19871067E-01
0.17320568E-01
0.15159884E-01
0.13313944E-01
0.11734933E-01
0.10397156E-01
0.92039621E-02
0.81510041E-02
0.72343396E-02
0.64199399E-02
0.57070805E-02
0.50714277E-02
0.45083473E-02
0.40162895E-02
0.35831288E-02
0.31960681E-02
0.28479355E-02
0.25432091E-02
0.22754767E-02
0.20337726E-02
0.18216526E-02
0.16344570E-02
0.14668984E-02
0.13192436E-02
0.11869720E-02
0.10692426E-02
0.96427609E-03
0.87147957E-03
