atomic number =   51
effective nuclear charge =   51
electron count =   52
net charge =   -1
basis set = approximate basis set limit (UGBS)      
exchange correlation functional = PW91                
cutoff radius (picometer) =  300
number of shells =   50
prepared by = Thomas A. Manz      
prepared date = 2012                
magnetization =    2
density in atomic units:
0.18342834E+05
0.15177600E+03
0.60726849E+02
0.19173130E+02
0.71143241E+01
0.46752644E+01
0.36150413E+01
0.26009660E+01
0.17152629E+01
0.10917714E+01
0.67865622E+00
0.42537051E+00
0.28445238E+00
0.19685137E+00
0.14334613E+00
0.10874656E+00
0.85394286E-01
0.69713190E-01
0.57756145E-01
0.48462231E-01
0.41033398E-01
0.34916341E-01
0.29854665E-01
0.25574198E-01
0.21913974E-01
0.18779000E-01
0.16113181E-01
0.13883155E-01
0.11930043E-01
0.10244097E-01
0.88138282E-02
0.75773350E-02
0.65254224E-02
0.56138434E-02
0.48297206E-02
0.41642487E-02
0.35947587E-02
0.31001295E-02
0.26675856E-02
0.22995044E-02
0.19851534E-02
0.17092486E-02
0.14739383E-02
0.12721178E-02
0.10967311E-02
0.94671262E-03
0.81635418E-03
0.70379826E-03
0.60668099E-03
0.52356761E-03
