atomic number =   32
effective nuclear charge =   32
electron count =   27
net charge =    5
basis set = approximate basis set limit (UGBS)      
exchange correlation functional = PW91                
cutoff radius (picometer) =  300
number of shells =   50
prepared by = Thomas A. Manz      
prepared date = 2012                
magnetization =    1
density in atomic units:
0.40863918E+04
0.96767189E+02
0.23347984E+02
0.12443084E+02
0.86212654E+01
0.51683893E+01
0.28384318E+01
0.15393535E+01
0.81004107E+00
0.42654508E+00
0.22188564E+00
0.11409404E+00
0.61988279E-01
0.33508729E-01
0.18296158E-01
0.99675758E-02
0.54253219E-02
0.30521238E-02
0.17092292E-02
0.95278135E-03
0.53554599E-03
0.29916200E-03
0.16686649E-03
0.93137663E-04
0.51158509E-04
0.28163802E-04
0.15368718E-04
0.85231459E-05
0.46362388E-05
0.24674857E-05
0.13078733E-05
0.69546121E-06
0.36942089E-06
0.20023775E-06
0.11978013E-06
0.68176789E-07
0.40452505E-07
0.24983997E-07
0.15348917E-07
0.98277866E-08
0.64288734E-08
0.42770698E-08
0.29129756E-08
0.19674324E-08
0.13114553E-08
0.85688984E-09
0.56081306E-09
0.35203224E-09
0.21907599E-09
0.13244703E-09
