atomic number =   54
effective nuclear charge =   54
electron count =   54
net charge =    0
basis set = approximate basis set limit (UGBS)      
exchange correlation functional = PW91PW91            
cutoff radius (picometer) =  300
number of shells =   50
prepared by = Thomas A. Manz      
prepared date = July 2010           
magnetization =    0
density in atomic units:
0.22076094E+05
0.16756761E+03
0.61752094E+02
0.17418747E+02
0.80184526E+01
0.59051366E+01
0.41474724E+01
0.26449232E+01
0.15664946E+01
0.92894459E+00
0.56783372E+00
0.37351403E+00
0.27411118E+00
0.21270439E+00
0.17212696E+00
0.14159283E+00
0.11698088E+00
0.97439311E-01
0.80509968E-01
0.66163301E-01
0.54136373E-01
0.44074174E-01
0.35807572E-01
0.28986286E-01
0.23365833E-01
0.18771067E-01
0.15067565E-01
0.12145423E-01
0.97398842E-02
0.77946070E-02
0.62528276E-02
0.50085722E-02
0.40217652E-02
0.32249710E-02
0.25864413E-02
0.20819197E-02
0.16793218E-02
0.13534469E-02
0.10877479E-02
0.87695295E-03
0.70901733E-03
0.57141914E-03
0.46182916E-03
0.37405165E-03
0.30270620E-03
0.24563461E-03
0.19920486E-03
0.16169761E-03
0.13135775E-03
0.10696611E-03
