atomic number =   35
effective nuclear charge =   35
electron count =   37
net charge =   -2
basis set = approximate basis set limit (UGBS)      
exchange correlation functional = PW91                
cutoff radius (picometer) =  300
number of shells =   50
prepared by = Thomas A. Manz      
prepared date = 2011                
magnetization =    1
density in atomic units:
0.54484712E+04
0.10328297E+03
0.27316614E+02
0.16662882E+02
0.10269801E+02
0.52339730E+01
0.25232420E+01
0.12887522E+01
0.70248026E+00
0.43919590E+00
0.30966228E+00
0.23884130E+00
0.19612935E+00
0.16289018E+00
0.13591444E+00
0.11265738E+00
0.92706896E-01
0.76624967E-01
0.62845655E-01
0.51415827E-01
0.42066947E-01
0.34418754E-01
0.28251851E-01
0.23233730E-01
0.19134484E-01
0.15796728E-01
0.13102380E-01
0.10963334E-01
0.91831852E-02
0.77217082E-02
0.65398961E-02
0.55631823E-02
0.47662300E-02
0.41012419E-02
0.35482189E-02
0.30925507E-02
0.27119422E-02
0.23881218E-02
0.21091558E-02
0.18742599E-02
0.16747555E-02
0.14997715E-02
0.13499015E-02
0.12202197E-02
0.11060220E-02
0.10065148E-02
0.91799826E-03
0.83954859E-03
0.76963805E-03
0.70758665E-03
