atomic number =   23
effective nuclear charge =   23
electron count =   24
net charge =   -1
basis set = approximate basis set limit (UGBS)      
exchange correlation functional = PW91PW91            
cutoff radius (picometer) =  300
number of shells =   50
prepared by = Thomas A. Manz      
prepared date = July 2010           
magnetization =    4
density in atomic units:
0.14602891E+04
0.64083244E+02
0.22780067E+02
0.68120894E+01
0.28960886E+01
0.20358393E+01
0.16552993E+01
0.12886022E+01
0.94189233E+00
0.66240501E+00
0.45125002E+00
0.30126253E+00
0.20715378E+00
0.14280011E+00
0.10039596E+00
0.71700118E-01
0.52632436E-01
0.40200312E-01
0.31529322E-01
0.25194701E-01
0.20760966E-01
0.17402334E-01
0.14806801E-01
0.12844835E-01
0.11183217E-01
0.98737683E-02
0.87320209E-02
0.78004240E-02
0.69730007E-02
0.62291785E-02
0.55875601E-02
0.50120773E-02
0.45055756E-02
0.40471363E-02
0.36308395E-02
0.32660014E-02
0.29352233E-02
0.26337223E-02
0.23587043E-02
0.21125192E-02
0.18942788E-02
0.16931072E-02
0.15132385E-02
0.13527460E-02
0.12068509E-02
0.10770703E-02
0.95970387E-03
0.85465121E-03
0.76038361E-03
0.67687972E-03
