atomic number =   87
effective nuclear charge =   87
electron count =   86
net charge =    1
basis set = approximate basis set limit (UGBS)      
exchange correlation functional = PW91                
cutoff radius (picometer) =  300
number of shells =   50
prepared by = Thomas A. Manz      
prepared date = 2011                
magnetization =    0
density in atomic units:
0.10138457E+06
0.29617249E+03
0.98630562E+02
0.45329666E+02
0.16486385E+02
0.73768325E+01
0.46546912E+01
0.31373599E+01
0.20065215E+01
0.12637980E+01
0.79763466E+00
0.52409291E+00
0.37504271E+00
0.28054053E+00
0.21879002E+00
0.17408070E+00
0.13968022E+00
0.11353196E+00
0.91669813E-01
0.73684275E-01
0.58988426E-01
0.46971045E-01
0.37308041E-01
0.29500620E-01
0.23200976E-01
0.18163536E-01
0.14192342E-01
0.11130704E-01
0.86708479E-02
0.67315754E-02
0.52350364E-02
0.40601343E-02
0.31543116E-02
0.24445243E-02
0.18926766E-02
0.14700884E-02
0.11434709E-02
0.88760874E-03
0.68605959E-03
0.53160870E-03
0.41288536E-03
0.31913997E-03
0.24726600E-03
0.19184909E-03
0.14855669E-03
0.11522296E-03
0.89221750E-04
0.69091366E-04
0.53502310E-04
0.41529282E-04
