atomic number =   34
effective nuclear charge =   34
electron count =   31
net charge =    3
basis set = approximate basis set limit (UGBS)      
exchange correlation functional = PW91                
cutoff radius (picometer) =  300
number of shells =   50
prepared by = Thomas A. Manz      
prepared date = 2012                
magnetization =    1
density in atomic units:
0.49663843E+04
0.10140049E+03
0.25770937E+02
0.15271718E+02
0.98707161E+01
0.53345361E+01
0.26982472E+01
0.14055787E+01
0.74639845E+00
0.42967775E+00
0.26704141E+00
0.17968631E+00
0.13168848E+00
0.98994479E-01
0.75740650E-01
0.57881977E-01
0.43939233E-01
0.33584282E-01
0.25334032E-01
0.18962432E-01
0.14112878E-01
0.10431808E-01
0.76891044E-02
0.56376373E-02
0.41062050E-02
0.29743046E-02
0.21495714E-02
0.15616438E-02
0.11249065E-02
0.80680434E-03
0.58004627E-03
0.41562811E-03
0.29849421E-03
0.21363598E-03
0.15267603E-03
0.10954931E-03
0.78714824E-04
0.56369860E-04
0.40070023E-04
0.28553271E-04
0.20372307E-04
0.14376392E-04
0.10131309E-04
0.71314789E-05
0.50590443E-05
0.36192127E-05
0.25696788E-05
0.18178911E-05
0.12827948E-05
0.90740468E-06
