atomic number =    7
effective nuclear charge =    7
electron count =    2
net charge =    5
basis set = approximate basis set limit (UGBS)      
exchange correlation functional = PW91PW91            
cutoff radius (picometer) =  300
number of shells =   50
prepared by = Thomas A. Manz      
prepared date = July 2010           
magnetization =    0
density in atomic units:
0.72059570E+02
0.15768970E+02
0.38880951E+01
0.95272136E+00
0.23809719E+00
0.53701792E-01
0.12281144E-01
0.31042723E-02
0.74819429E-03
0.18094156E-03
0.42147003E-04
0.92943146E-05
0.22390198E-05
0.53901687E-06
0.14867764E-06
0.10058735E-06
0.60826608E-07
0.36529165E-07
0.25776659E-07
0.18403933E-07
0.12576958E-07
0.84745340E-08
0.58424026E-08
0.37331751E-08
0.22109907E-08
0.14803008E-08
0.85665897E-09
0.46196255E-09
0.26713029E-09
0.14445453E-09
0.71076936E-10
0.42217084E-10
0.20354057E-10
0.98013386E-11
0.49126779E-11
0.22618131E-11
0.10883787E-11
0.56084981E-12
0.23561719E-12
0.10145675E-12
0.44332237E-13
0.19163094E-13
0.87087735E-14
0.38215374E-14
0.14548174E-14
0.60940977E-15
0.24021561E-15
0.85279330E-16
0.37164404E-16
0.13476011E-16
