atomic number =   27
effective nuclear charge =   27
electron count =   23
net charge =    4
basis set = approximate basis set limit (UGBS)      
exchange correlation functional = PW91                
cutoff radius (picometer) =  300
number of shells =   50
prepared by = Thomas A. Manz      
prepared date = 2011                
magnetization =    5
density in atomic units:
0.23917146E+04
0.81729568E+02
0.21764647E+02
0.72997060E+01
0.48508506E+01
0.35977387E+01
0.24488549E+01
0.15756913E+01
0.95506793E+00
0.56777287E+00
0.32797170E+00
0.18690452E+00
0.11113551E+00
0.65940477E-01
0.39898604E-01
0.24458650E-01
0.15206058E-01
0.98915836E-02
0.65160659E-02
0.43804827E-02
0.30063039E-02
0.20968497E-02
0.14893056E-02
0.10716239E-02
0.77861204E-03
0.57088002E-03
0.42291920E-03
0.31800615E-03
0.23919296E-03
0.18038122E-03
0.13694068E-03
0.10406193E-03
0.79463141E-04
0.60668801E-04
0.46352481E-04
0.35583194E-04
0.27349115E-04
0.20995831E-04
0.16059023E-04
0.12287835E-04
0.93722383E-05
0.70982742E-05
0.53747867E-05
0.40614505E-05
0.30543620E-05
0.22744971E-05
0.16932370E-05
0.12651549E-05
0.94456851E-06
0.70636236E-06
