atomic number =   33
effective nuclear charge =   33
electron count =   36
net charge =   -3
basis set = approximate basis set limit (UGBS)      
exchange correlation functional = PW91                
cutoff radius (picometer) =  300
number of shells =   50
prepared by = Thomas A. Manz      
prepared date = 2012                
magnetization =    0
density in atomic units:
0.45117363E+04
0.99251877E+02
0.24474888E+02
0.13908372E+02
0.93732433E+01
0.53515887E+01
0.28388112E+01
0.15287443E+01
0.82703322E+00
0.47745705E+00
0.29578009E+00
0.20058376E+00
0.15145952E+00
0.12046861E+00
0.99703163E-01
0.84109865E-01
0.71697071E-01
0.61968360E-01
0.53588510E-01
0.46452932E-01
0.40376756E-01
0.35155695E-01
0.30706646E-01
0.26864050E-01
0.23522276E-01
0.20613322E-01
0.18100139E-01
0.15961759E-01
0.14051576E-01
0.12367870E-01
0.10906017E-01
0.96101463E-02
0.84777968E-02
0.74686841E-02
0.65753856E-02
0.57950313E-02
0.51074261E-02
0.44928864E-02
0.39398680E-02
0.34562245E-02
0.30320662E-02
0.26502707E-02
0.23166959E-02
0.20241323E-02
0.17644648E-02
0.15381064E-02
0.13380008E-02
0.11625439E-02
0.10089068E-02
0.87587512E-03
