atomic number =   27
effective nuclear charge =   27
electron count =   22
net charge =    5
basis set = approximate basis set limit (UGBS)      
exchange correlation functional = PW91                
cutoff radius (picometer) =  300
number of shells =   50
prepared by = Thomas A. Manz      
prepared date = 2011                
magnetization =    4
density in atomic units:
0.23929062E+04
0.81751678E+02
0.21539392E+02
0.71504679E+01
0.47392125E+01
0.35054843E+01
0.23541095E+01
0.14809747E+01
0.87705255E+00
0.50509429E+00
0.28257588E+00
0.15452226E+00
0.88411964E-01
0.50484136E-01
0.29355567E-01
0.17277408E-01
0.10401023E-01
0.65670190E-02
0.42378851E-02
0.27724379E-02
0.18717705E-02
0.12797662E-02
0.88640966E-03
0.62774180E-03
0.44338329E-03
0.31939748E-03
0.22974682E-03
0.16867786E-03
0.12364039E-03
0.90274487E-04
0.66643675E-04
0.49179151E-04
0.36573252E-04
0.27205757E-04
0.20197758E-04
0.15156818E-04
0.11345082E-04
0.84591002E-05
0.62881527E-05
0.46580021E-05
0.34786765E-05
0.25792810E-05
0.19006093E-05
0.14010083E-05
0.10324104E-05
0.76399533E-06
0.56125344E-06
0.41038703E-06
0.29966239E-06
0.21757421E-06
