atomic number =   50
effective nuclear charge =   50
electron count =   53
net charge =   -3
basis set = approximate basis set limit (UGBS)      
exchange correlation functional = PW91                
cutoff radius (picometer) =  300
number of shells =   50
prepared by = Thomas A. Manz      
prepared date = 2011                
magnetization =    1
density in atomic units:
0.17202824E+05
0.14687241E+03
0.59815037E+02
0.19866293E+02
0.70361619E+01
0.42957087E+01
0.33653808E+01
0.25103660E+01
0.17186179E+01
0.11291600E+01
0.71853000E+00
0.45540687E+00
0.30344084E+00
0.20643733E+00
0.14638118E+00
0.10765679E+00
0.82067013E-01
0.65529101E-01
0.53518783E-01
0.44672996E-01
0.37956640E-01
0.32669496E-01
0.28450303E-01
0.24973042E-01
0.22051528E-01
0.19565605E-01
0.17451320E-01
0.15664712E-01
0.14072744E-01
0.12665930E-01
0.11433760E-01
0.10327985E-01
0.93455864E-02
0.84524620E-02
0.76442980E-02
0.69188680E-02
0.62630903E-02
0.56600654E-02
0.51005119E-02
0.45961784E-02
0.41392567E-02
0.37151657E-02
0.33331728E-02
0.29873645E-02
0.26713614E-02
0.23873528E-02
0.21287885E-02
0.18952450E-02
0.16849734E-02
0.14975721E-02
