atomic number =  109
effective nuclear charge =  109
electron count =  109
net charge =    0
basis set = approximate basis set limit (UGBS)      
exchange correlation functional = PW91PW91            
cutoff radius (picometer) =  300
number of shells =   50
prepared by = Thomas A. Manz      
prepared date = July 2010           
magnetization =    3
density in atomic units:
0.19372183E+06
0.39095001E+03
0.12174199E+03
0.35371582E+02
0.21519222E+02
0.12648434E+02
0.67518110E+01
0.38588657E+01
0.23690560E+01
0.15658578E+01
0.10578027E+01
0.72254014E+00
0.51233035E+00
0.36492473E+00
0.26508734E+00
0.19524498E+00
0.14571176E+00
0.11215201E+00
0.87002255E-01
0.68460248E-01
0.54434650E-01
0.43682780E-01
0.35408735E-01
0.28811472E-01
0.23549186E-01
0.19256052E-01
0.15816791E-01
0.13063474E-01
0.10759786E-01
0.88626388E-02
0.73166052E-02
0.60352851E-02
0.49886941E-02
0.41191243E-02
0.34032904E-02
0.28189856E-02
0.23405273E-02
0.19419437E-02
0.16070353E-02
0.13338272E-02
0.11093566E-02
0.92020392E-03
0.76525175E-03
0.63727750E-03
0.53037686E-03
0.44227362E-03
0.36851550E-03
0.30713773E-03
0.25609831E-03
0.21395265E-03
