atomic number =  103
effective nuclear charge =  103
electron count =  104
net charge =   -1
basis set = approximate basis set limit (UGBS)      
exchange correlation functional = PW91                
cutoff radius (picometer) =  300
number of shells =   50
prepared by = Thomas A. Manz      
prepared date = 2012                
magnetization =    2
density in atomic units:
0.16612412E+06
0.35958551E+03
0.12514328E+03
0.35143814E+02
0.17661629E+02
0.11387879E+02
0.67519841E+01
0.40189018E+01
0.24643340E+01
0.16076878E+01
0.10766736E+01
0.73090309E+00
0.51311207E+00
0.35786608E+00
0.25076383E+00
0.17517217E+00
0.12243944E+00
0.87865047E-01
0.63524812E-01
0.46771538E-01
0.35321470E-01
0.27361767E-01
0.21814561E-01
0.17871717E-01
0.14963793E-01
0.12806750E-01
0.11147061E-01
0.98725390E-02
0.88120047E-02
0.79137729E-02
0.71570626E-02
0.64920788E-02
0.59117242E-02
0.53842007E-02
0.49088788E-02
0.44852649E-02
0.40993872E-02
0.37433777E-02
0.34134879E-02
0.31141296E-02
0.28437481E-02
0.25908209E-02
0.23609686E-02
0.21520746E-02
0.19587774E-02
0.17835345E-02
0.16219880E-02
0.14743722E-02
0.13392973E-02
0.12171227E-02
