atomic number =  107
effective nuclear charge =  107
electron count =  108
net charge =   -1
basis set = approximate basis set limit (UGBS)      
exchange correlation functional = PW91                
cutoff radius (picometer) =  300
number of shells =   50
prepared by = Thomas A. Manz      
prepared date = 2012                
magnetization =    4
density in atomic units:
0.18436689E+06
0.38026944E+03
0.12347360E+03
0.34791935E+02
0.20198586E+02
0.12372205E+02
0.68299003E+01
0.39334621E+01
0.23971784E+01
0.15679021E+01
0.10508984E+01
0.71266186E+00
0.50188917E+00
0.35471261E+00
0.25512370E+00
0.18563309E+00
0.13740881E+00
0.10513582E+00
0.81729956E-01
0.64506933E-01
0.51975757E-01
0.42421117E-01
0.35041418E-01
0.29325832E-01
0.24615321E-01
0.20857509E-01
0.17708132E-01
0.15175441E-01
0.12997783E-01
0.11122338E-01
0.95595680E-02
0.82162423E-02
0.70831515E-02
0.61037694E-02
0.52560600E-02
0.45460803E-02
0.39316490E-02
0.33964496E-02
0.29300298E-02
0.25301382E-02
0.21911918E-02
0.18914148E-02
0.16339755E-02
0.14136005E-02
0.12205667E-02
0.10554185E-02
0.91143680E-03
0.78727130E-03
0.67960739E-03
0.58757776E-03
