atomic number =  107
effective nuclear charge =  107
electron count =  107
net charge =    0
basis set = approximate basis set limit (UGBS)      
exchange correlation functional = PW91PW91            
cutoff radius (picometer) =  300
number of shells =   50
prepared by = Thomas A. Manz      
prepared date = July 2010           
magnetization =    5
density in atomic units:
0.18436841E+06
0.38027744E+03
0.12347060E+03
0.34796677E+02
0.20195536E+02
0.12370001E+02
0.68338451E+01
0.39390671E+01
0.24006398E+01
0.15681888E+01
0.10479021E+01
0.70804405E+00
0.49666101E+00
0.34939644E+00
0.25025254E+00
0.18153769E+00
0.13374415E+00
0.10195605E+00
0.78756191E-01
0.61909210E-01
0.49483132E-01
0.40052764E-01
0.32820974E-01
0.27104525E-01
0.22488428E-01
0.18722381E-01
0.15644304E-01
0.13153993E-01
0.11034455E-01
0.92518143E-02
0.77756229E-02
0.65285964E-02
0.54918653E-02
0.46137869E-02
0.38758600E-02
0.32642903E-02
0.27529732E-02
0.23192286E-02
0.19490529E-02
0.16415290E-02
0.13851904E-02
0.11654902E-02
0.98257745E-03
0.82934351E-03
0.69933315E-03
0.59071102E-03
0.49855129E-03
0.42084564E-03
0.35531691E-03
0.30052252E-03
