atomic number =   48
effective nuclear charge =   48
electron count =   30
net charge =   18
basis set = approximate basis set limit (UGBS)      
exchange correlation functional = PW91PW91            
cutoff radius (picometer) =  300
number of shells =   50
prepared by = Thomas A. Manz      
prepared date = July 2010           
net magnetization =    0
density in atomic units:
0.15063282E+05
0.13102551E+03
0.53801315E+02
0.20988718E+02
0.65522285E+01
0.19510816E+01
0.78330964E+00
0.41781232E+00
0.23571026E+00
0.13339536E+00
0.72110228E-01
0.37333973E-01
0.19764649E-01
0.10158462E-01
0.52043460E-02
0.26370527E-02
0.13148830E-02
0.67707093E-03
0.34250581E-03
0.17234881E-03
0.86609172E-04
0.43258791E-04
0.21637830E-04
0.10778668E-04
0.53190274E-05
0.26082912E-05
0.12771287E-05
0.63555933E-06
0.31206065E-06
0.15244498E-06
0.75517391E-07
0.37674070E-07
0.19336055E-07
0.10236629E-07
0.57008647E-08
0.34215002E-08
0.22203499E-08
0.15492694E-08
0.11493894E-08
0.89791430E-09
0.72221268E-09
0.58331839E-09
0.46763066E-09
0.36748243E-09
0.27832900E-09
0.20208490E-09
0.13792481E-09
0.87036496E-10
0.49277405E-10
0.24001105E-10
