atomic number =   51
effective nuclear charge =   51
electron count =    2
net charge =   49
basis set = approximate basis set limit (UGBS)      
exchange correlation functional = PW91PW91            
cutoff radius (picometer) =  300
number of shells =   50
prepared by = Thomas A. Manz      
prepared date = July 2010           
net magnetization =    0
density in atomic units:
0.15505911E+05
0.10825544E-01
0.41249218E-05
0.21441924E-05
0.51510079E-06
0.12889417E-06
0.99691583E-07
0.50608453E-07
0.39907264E-08
0.17879282E-07
0.11749141E-07
0.13938682E-08
0.86689023E-09
0.28725475E-08
0.27643487E-08
0.12911578E-08
0.22230924E-09
0.37532626E-10
0.27242075E-09
0.47849746E-09
0.48301813E-09
0.34109832E-09
0.17187626E-09
0.52783045E-10
0.45434511E-11
0.10224539E-10
0.39079448E-10
0.65905531E-10
0.79387497E-10
0.76990699E-10
0.63180024E-10
0.44321949E-10
0.26280627E-10
0.12273130E-10
0.37369873E-11
0.35708648E-12
0.68115001E-12
0.31754681E-11
0.64678822E-11
0.94125315E-11
0.11407226E-10
0.12264805E-10
0.12005533E-10
0.10881027E-10
0.91838507E-11
0.72474114E-11
0.53058586E-11
0.35640677E-11
0.21436011E-11
0.11052121E-11
