atomic number =  101
effective nuclear charge =  101
electron count =   68
net charge =   33
basis set = approximate basis set limit (UGBS)      
exchange correlation functional = PW91PW91            
cutoff radius (picometer) =  300
number of shells =   50
prepared by = Thomas A. Manz      
prepared date = July 2010           
net magnetization =    0
density in atomic units:
0.15716584E+06
0.33407538E+03
0.11958813E+03
0.34552673E+02
0.11204617E+02
0.46504936E+01
0.19624403E+01
0.79652154E+00
0.29059371E+00
0.10084523E+00
0.32757491E-01
0.10146968E-01
0.34317076E-02
0.11488486E-02
0.38778005E-03
0.12845286E-03
0.39749058E-04
0.12381352E-04
0.35096054E-05
0.92426649E-06
0.23569150E-06
0.62186274E-07
0.17685807E-07
0.45233501E-08
0.16551164E-08
0.38622723E-08
0.80561104E-08
0.11775837E-07
0.13782986E-07
0.13644975E-07
0.11797273E-07
0.90111438E-08
0.61156538E-08
0.36282590E-08
0.18689148E-08
0.89825869E-09
0.57017890E-09
0.68714978E-09
0.10489143E-08
0.14671402E-08
0.18159667E-08
0.20334041E-08
0.20886171E-08
0.19990145E-08
0.17961919E-08
0.15241320E-08
0.12200521E-08
0.92172497E-09
0.65432482E-09
0.43602705E-09
