atomic number =   57
effective nuclear charge =   57
electron count =   10
net charge =   47
basis set = approximate basis set limit (UGBS)      
exchange correlation functional = PW91PW91            
cutoff radius (picometer) =  300
number of shells =   50
prepared by = Thomas A. Manz      
prepared date = July 2010           
net magnetization =    0
density in atomic units:
0.25462715E+05
0.42447071E+02
0.61273152E+00
0.61572851E-02
0.70551789E-04
0.10021424E-05
0.24898657E-06
0.12791251E-06
0.10488955E-07
0.46620688E-07
0.30314979E-07
0.35312231E-08
0.23416451E-08
0.75824449E-08
0.72416984E-08
0.33614354E-08
0.57194927E-09
0.10433440E-09
0.72891093E-09
0.12686674E-08
0.12756242E-08
0.89828239E-09
0.45127885E-09
0.13795949E-09
0.11965482E-10
0.27980805E-10
0.10464241E-09
0.17549126E-09
0.21078743E-09
0.20409141E-09
0.16729430E-09
0.11724943E-09
0.69467238E-10
0.32400381E-10
0.98574439E-11
0.97404452E-12
0.18898680E-11
0.85354059E-11
0.17282425E-10
0.25084625E-10
0.30359951E-10
0.32601814E-10
0.31900847E-10
0.28894335E-10
0.24379644E-10
0.19234562E-10
0.14076185E-10
0.94549186E-11
0.56891592E-11
0.29338394E-11
