atomic number =   59
effective nuclear charge =   59
electron count =   12
net charge =   47
basis set = approximate basis set limit (UGBS)      
exchange correlation functional = PW91PW91            
cutoff radius (picometer) =  300
number of shells =   50
prepared by = Thomas A. Manz      
prepared date = July 2010           
net magnetization =    0
density in atomic units:
0.29109021E+05
0.48363686E+02
0.79779882E+01
0.15629344E+01
0.21639180E+00
0.21281287E-01
0.19216063E-02
0.19422077E-03
0.16157022E-04
0.13187588E-05
0.14763958E-06
0.21042080E-07
0.82497147E-08
0.10574440E-07
0.87083878E-08
0.38364152E-08
0.65067085E-09
0.21104492E-09
0.97712871E-09
0.15844978E-08
0.15494021E-08
0.10726111E-08
0.53110605E-09
0.16020546E-09
0.16481341E-10
0.41253174E-10
0.13559957E-09
0.22034337E-09
0.26097019E-09
0.25056970E-09
0.20422390E-09
0.14242907E-09
0.84024426E-10
0.39048060E-10
0.11913076E-10
0.14288476E-11
0.28163849E-11
0.11089740E-10
0.21826038E-10
0.31332156E-10
0.37693810E-10
0.40338968E-10
0.39393603E-10
0.35630054E-10
0.30024580E-10
0.23670904E-10
0.17312757E-10
0.11627009E-10
0.69966415E-11
0.36172374E-11
