atomic number =   23
effective nuclear charge =   23
electron count =    2
net charge =   21
basis set = approximate basis set limit (UGBS)      
exchange correlation functional = PW91PW91            
cutoff radius (picometer) =  300
number of shells =   50
prepared by = Thomas A. Manz      
prepared date = July 2010           
net magnetization =    0
density in atomic units:
0.12632832E+04
0.37430246E+01
0.35979860E-01
0.33371881E-03
0.31383065E-05
0.15411043E-07
0.57674381E-08
0.15646610E-08
0.19802582E-09
0.74191447E-09
0.42045054E-09
0.39550987E-10
0.44789623E-10
0.12336226E-09
0.11085144E-09
0.48870668E-10
0.74211583E-11
0.20302490E-11
0.12438508E-10
0.20602709E-10
0.20200220E-10
0.13951973E-10
0.68541366E-11
0.20083048E-11
0.15093517E-12
0.50175521E-12
0.17567404E-11
0.28764701E-11
0.34104722E-11
0.32724207E-11
0.26627483E-11
0.18519361E-11
0.10871881E-11
0.49981986E-12
0.14709673E-12
0.12593942E-13
0.33210342E-13
0.14342532E-12
0.28511484E-12
0.41006822E-12
0.49351576E-12
0.52794607E-12
0.51486587E-12
0.46510625E-12
0.39143059E-12
0.30798964E-12
0.22475197E-12
0.15038791E-12
0.89981652E-13
0.46004484E-13
