atomic number =   30
effective nuclear charge =   30
electron count =   12
net charge =   18
basis set = approximate basis set limit (UGBS)      
exchange correlation functional = PW91PW91            
cutoff radius (picometer) =  300
number of shells =   50
prepared by = Thomas A. Manz      
prepared date = July 2010           
net magnetization =    0
density in atomic units:
0.33095305E+04
0.84442474E+02
0.16631855E+02
0.32149026E+01
0.13204471E+01
0.75750560E+00
0.42224625E+00
0.22513855E+00
0.11176734E+00
0.54203723E-01
0.25262820E-01
0.11425724E-01
0.54116817E-02
0.25063322E-02
0.11631750E-02
0.53564995E-03
0.24244982E-03
0.11413611E-03
0.52789106E-04
0.24342236E-04
0.11250561E-04
0.51896009E-05
0.24137312E-05
0.11287415E-05
0.52984041E-06
0.25151226E-06
0.12176294E-06
0.61231518E-07
0.30969836E-07
0.15780953E-07
0.81389642E-08
0.41343928E-08
0.20547124E-08
0.96453034E-09
0.41185916E-09
0.15241540E-09
0.42492836E-10
0.69154999E-11
0.53420961E-11
0.15652771E-10
0.26630899E-10
0.33958579E-10
0.36346291E-10
0.34532238E-10
0.29825937E-10
0.23708202E-10
0.17263573E-10
0.11410490E-10
0.66615914E-11
0.32797903E-11
