atomic number =   87
effective nuclear charge =   87
electron count =   86
net charge =    1
basis set = approximate basis set limit (UGBS)      
exchange correlation functional = PW91PW91            
cutoff radius (picometer) =  300
number of shells =   50
prepared by = Thomas A. Manz      
prepared date = July 2010           
net magnetization =    0
density in atomic units:
0.10138463E+06
0.29616696E+03
0.98623878E+02
0.45328854E+02
0.16484945E+02
0.73738413E+01
0.46525540E+01
0.31365614E+01
0.20063503E+01
0.12636280E+01
0.79710817E+00
0.52318031E+00
0.37384379E+00
0.27919248E+00
0.21741897E+00
0.17278358E+00
0.13853826E+00
0.11257450E+00
0.90915546E-01
0.73126987E-01
0.58608864E-01
0.46743378E-01
0.37208516E-01
0.29500524E-01
0.23277253E-01
0.18293045E-01
0.14356389E-01
0.11314651E-01
0.88632340E-02
0.69238176E-02
0.54206974E-02
0.42349035E-02
0.33163005E-02
0.25921327E-02
0.20257183E-02
0.15887585E-02
0.12484757E-02
0.97954215E-03
0.76571020E-03
0.60028309E-03
0.47182763E-03
0.36930450E-03
0.28976385E-03
0.22773974E-03
0.17871788E-03
0.14057638E-03
0.11042384E-03
0.86761065E-04
0.68173380E-04
0.53694450E-04
