atomic number =   23
effective nuclear charge =   23
electron count =    4
net charge =   19
basis set = approximate basis set limit (UGBS)      
exchange correlation functional = PW91PW91            
cutoff radius (picometer) =  300
number of shells =   50
prepared by = Thomas A. Manz      
prepared date = July 2010           
net magnetization =    0
density in atomic units:
0.13715422E+04
0.14350228E+02
0.62184696E+01
0.19214590E+01
0.48850405E+00
0.10080207E+00
0.19871054E-01
0.42917309E-02
0.87667984E-03
0.17955665E-03
0.34918325E-04
0.62334666E-05
0.12590838E-05
0.25724830E-06
0.56729352E-07
0.13503366E-07
0.31311918E-08
0.74169415E-09
0.15379287E-09
0.38850367E-10
0.22975479E-10
0.17753224E-10
0.10864377E-10
0.47208292E-11
0.14621388E-11
0.10137617E-11
0.20718490E-11
0.33105116E-11
0.40229261E-11
0.39763852E-11
0.33346520E-11
0.24006114E-11
0.14757741E-11
0.73578237E-12
0.26741131E-12
0.64498686E-13
0.57724387E-13
0.16986408E-12
0.33003328E-12
0.47803824E-12
0.58092637E-12
0.62719665E-12
0.61679004E-12
0.56144217E-12
0.47603284E-12
0.37753909E-12
0.27798410E-12
0.18819982E-12
0.11452818E-12
0.60310237E-13
