atomic number =   53
effective nuclear charge =   53
electron count =   48
net charge =    5
basis set = approximate basis set limit (UGBS)      
exchange correlation functional = PW91PW91            
cutoff radius (picometer) =  300
number of shells =   50
prepared by = Thomas A. Manz      
prepared date = July 2010           
net magnetization =    0
density in atomic units:
0.20777865E+05
0.16184537E+03
0.61575241E+02
0.17891684E+02
0.74979472E+01
0.53856001E+01
0.39603922E+01
0.26543219E+01
0.16326932E+01
0.97599679E+00
0.57202262E+00
0.33862710E+00
0.21451057E+00
0.13960692E+00
0.94721772E-01
0.66139892E-01
0.47226638E-01
0.34931410E-01
0.25997527E-01
0.19496158E-01
0.14704388E-01
0.11109259E-01
0.84223086E-02
0.63835206E-02
0.48268079E-02
0.36419344E-02
0.27485960E-02
0.20868990E-02
0.15744112E-02
0.11842250E-02
0.89291681E-03
0.67138113E-03
0.50580170E-03
0.38000382E-03
0.28514114E-03
0.21472515E-03
0.16195548E-03
0.12186272E-03
0.91279231E-04
0.68572452E-04
0.51672334E-04
0.38733204E-04
0.29127101E-04
0.21950194E-04
0.16514368E-04
0.12461462E-04
0.93922581E-05
0.70820706E-05
0.53435642E-05
0.40447012E-05
