atomic number =  109
effective nuclear charge =  109
electron count =    2
net charge =  107
basis set = approximate basis set limit (UGBS)      
exchange correlation functional = PW91PW91            
cutoff radius (picometer) =  300
number of shells =   50
prepared by = Thomas A. Manz      
prepared date = July 2010           
net magnetization =    0
density in atomic units:
0.15638233E+06
0.14893991E-02
0.11242006E-03
0.36068865E-04
0.77883724E-05
0.21871497E-05
0.14766928E-05
0.80167865E-06
0.58405647E-07
0.26483960E-06
0.17939557E-06
0.22235881E-07
0.12280500E-07
0.42331827E-07
0.41313953E-07
0.19517586E-07
0.34403140E-08
0.52956800E-09
0.39670245E-08
0.70532309E-08
0.71621979E-08
0.50801869E-08
0.25724975E-08
0.79711587E-09
0.70492209E-10
0.14676550E-09
0.57122079E-09
0.96911767E-09
0.11710501E-08
0.11382043E-08
0.93565145E-09
0.65740779E-09
0.39063811E-09
0.18298273E-09
0.56077597E-10
0.54748003E-11
0.97921705E-11
0.46378259E-10
0.94918094E-10
0.13845808E-09
0.16804323E-09
0.18084916E-09
0.17717901E-09
0.16068552E-09
0.13570703E-09
0.10716068E-09
0.78489736E-10
0.52768581E-10
0.31773469E-10
0.16409003E-10
