atomic number =   51
effective nuclear charge =   51
electron count =   10
net charge =   41
basis set = approximate basis set limit (UGBS)      
exchange correlation functional = PW91PW91            
cutoff radius (picometer) =  300
number of shells =   50
prepared by = Thomas A. Manz      
prepared date = July 2010           
net magnetization =    0
density in atomic units:
0.17802949E+05
0.57816719E+02
0.15160847E+01
0.28347684E-01
0.55997196E-03
0.93882509E-05
0.22149956E-06
0.88278732E-07
0.90818641E-08
0.36826240E-07
0.23308251E-07
0.27583293E-08
0.19731929E-08
0.59838103E-08
0.56561702E-08
0.26248126E-08
0.45989629E-09
0.99045543E-10
0.58395383E-09
0.10016651E-08
0.10046224E-08
0.70830902E-09
0.35784506E-09
0.11176397E-09
0.12161003E-10
0.23900526E-10
0.83474352E-10
0.13882029E-09
0.16657802E-09
0.16140218E-09
0.13256718E-09
0.93206068E-10
0.55555709E-10
0.26252431E-10
0.83358910E-11
0.11682270E-11
0.17441543E-11
0.68746809E-11
0.13699848E-10
0.19824425E-10
0.23986342E-10
0.25792960E-10
0.25267999E-10
0.22932392E-10
0.19388260E-10
0.15338271E-10
0.11265814E-10
0.76062507E-11
0.46141038E-11
0.24179547E-11
