atomic number =   57
effective nuclear charge =   57
electron count =   46
net charge =   11
basis set = approximate basis set limit (UGBS)      
exchange correlation functional = PW91PW91            
cutoff radius (picometer) =  300
number of shells =   50
prepared by = Thomas A. Manz      
prepared date = July 2010           
net magnetization =    0
density in atomic units:
0.26286604E+05
0.18296277E+03
0.60319069E+02
0.16362968E+02
0.91485834E+01
0.66478705E+01
0.42005515E+01
0.24032407E+01
0.12553998E+01
0.63271827E+00
0.30520108E+00
0.14344800E+00
0.70894219E-01
0.34491248E-01
0.16855136E-01
0.81701670E-02
0.38995571E-02
0.19351750E-02
0.94980665E-03
0.46785726E-03
0.23197578E-03
0.11484645E-03
0.57007153E-04
0.28152268E-04
0.13765214E-04
0.67035448E-05
0.32872376E-05
0.16637051E-05
0.85026608E-06
0.44486686E-06
0.24244267E-06
0.13586778E-06
0.78607648E-07
0.46118380E-07
0.27183491E-07
0.16031517E-07
0.92893808E-08
0.51699862E-08
0.26937623E-08
0.12982565E-08
0.56259963E-09
0.21025320E-09
0.86815527E-10
0.80280595E-10
0.12305902E-09
0.17577281E-09
0.21854547E-09
0.24244107E-09
0.24620453E-09
0.23303967E-09
