atomic number =   50
effective nuclear charge =   50
electron count =   48
net charge =    2
basis set = approximate basis set limit (UGBS)      
exchange correlation functional = PW91PW91            
cutoff radius (picometer) =  300
number of shells =   50
prepared by = Thomas A. Manz      
prepared date = July 2010           
net magnetization =    0
density in atomic units:
0.17203902E+05
0.14681842E+03
0.59780544E+02
0.19864138E+02
0.70212708E+01
0.42716465E+01
0.33467956E+01
0.25013235E+01
0.17169255E+01
0.11306238E+01
0.71977937E+00
0.45438933E+00
0.29948595E+00
0.19939145E+00
0.13662745E+00
0.95701545E-01
0.68496510E-01
0.50958872E-01
0.38393825E-01
0.29369852E-01
0.22768766E-01
0.17810339E-01
0.14063383E-01
0.11161670E-01
0.88798814E-02
0.70766690E-02
0.56557674E-02
0.45499108E-02
0.36468101E-02
0.29189449E-02
0.23422830E-02
0.18763071E-02
0.15058685E-02
0.12060951E-02
0.96542540E-03
0.77496609E-03
0.62294560E-03
0.49992191E-03
0.39975593E-03
0.32048201E-03
0.25749093E-03
0.20606858E-03
0.16526890E-03
0.13275420E-03
0.10646458E-03
0.85541244E-04
0.68634778E-04
0.55053180E-04
0.44164262E-04
0.35473469E-04
