atomic number =  103
effective nuclear charge =  103
electron count =   86
net charge =   17
basis set = approximate basis set limit (UGBS)      
exchange correlation functional = PW91PW91            
cutoff radius (picometer) =  300
number of shells =   50
prepared by = Thomas A. Manz      
prepared date = July 2010           
net magnetization =    0
density in atomic units:
0.16610936E+06
0.34967343E+03
0.12365279E+03
0.34466957E+02
0.15301588E+02
0.84919243E+01
0.43196559E+01
0.22452967E+01
0.12635826E+01
0.81628966E+00
0.57089067E+00
0.41160357E+00
0.30371535E+00
0.21996124E+00
0.15779637E+00
0.11121358E+00
0.77126801E-01
0.53931691E-01
0.37141643E-01
0.25424333E-01
0.17370384E-01
0.11835339E-01
0.80853356E-02
0.55213026E-02
0.37601932E-02
0.25566567E-02
0.17403850E-02
0.11960666E-02
0.81586675E-03
0.55472471E-03
0.37889217E-03
0.25816093E-03
0.17665711E-03
0.12067129E-03
0.82483246E-04
0.56784625E-04
0.39262697E-04
0.27133819E-04
0.18674400E-04
0.12921426E-04
0.89846098E-05
0.62082954E-05
0.43030586E-05
0.29878636E-05
0.20657121E-05
0.14296232E-05
0.98489261E-06
0.67613144E-06
0.46253211E-06
0.31638194E-06
