atomic number =   74
effective nuclear charge =   74
electron count =   12
net charge =   62
basis set = approximate basis set limit (UGBS)      
exchange correlation functional = PW91PW91            
cutoff radius (picometer) =  300
number of shells =   50
prepared by = Thomas A. Manz      
prepared date = July 2010           
net magnetization =    0
density in atomic units:
0.60237461E+05
0.36723911E+02
0.46700253E+01
0.32127956E+00
0.16826946E-01
0.57067088E-03
0.23331042E-04
0.21182898E-05
0.76963445E-07
0.16062835E-06
0.11399599E-06
0.14119891E-07
0.91546317E-08
0.29047944E-07
0.27802574E-07
0.12979882E-07
0.22760340E-08
0.46011281E-09
0.28451919E-08
0.49153934E-08
0.49397881E-08
0.34840457E-08
0.17578035E-08
0.54561811E-09
0.56145921E-10
0.11599125E-09
0.41126225E-09
0.68494632E-09
0.82169566E-09
0.79565460E-09
0.65295613E-09
0.45843696E-09
0.27256425E-09
0.12818677E-09
0.40120546E-10
0.51556164E-11
0.83675211E-11
0.33970080E-10
0.67838200E-10
0.98138060E-10
0.11866971E-09
0.12751648E-09
0.12482984E-09
0.11317244E-09
0.95605142E-10
0.75528826E-10
0.55405854E-10
0.37325840E-10
0.22572845E-10
0.11759363E-10
