atomic number =   36
effective nuclear charge =   36
electron count =   12
net charge =   24
basis set = approximate basis set limit (UGBS)      
exchange correlation functional = PW91PW91            
cutoff radius (picometer) =  300
number of shells =   50
prepared by = Thomas A. Manz      
prepared date = July 2010           
net magnetization =    0
density in atomic units:
0.59198872E+04
0.88967010E+02
0.11070281E+02
0.28387611E+01
0.14604619E+01
0.65758187E+00
0.26263407E+00
0.10306745E+00
0.37606828E-01
0.13471724E-01
0.46230913E-02
0.15259217E-02
0.54094230E-03
0.18626922E-03
0.63831969E-04
0.21594211E-04
0.70634860E-05
0.24601809E-05
0.84956662E-06
0.29958088E-06
0.10877336E-06
0.40022165E-07
0.14784804E-07
0.52882565E-08
0.17398991E-08
0.49705395E-09
0.11537473E-09
0.29720188E-10
0.25672775E-10
0.33980589E-10
0.35526207E-10
0.29772348E-10
0.20778095E-10
0.12020168E-10
0.56243352E-11
0.22189275E-11
0.13201164E-11
0.21292970E-11
0.38112308E-11
0.55951706E-11
0.69946401E-11
0.77912989E-11
0.79092384E-11
0.74484134E-11
0.65511342E-11
0.54210512E-11
0.42067834E-11
0.30520883E-11
0.20526393E-11
0.12682286E-11
