atomic number =   73
effective nuclear charge =   73
electron count =   18
net charge =   55
basis set = approximate basis set limit (UGBS)      
exchange correlation functional = PW91PW91            
cutoff radius (picometer) =  300
number of shells =   50
prepared by = Thomas A. Manz      
prepared date = July 2010           
net magnetization =    0
density in atomic units:
0.57707746E+05
0.10637399E+03
0.18976282E+02
0.15419811E+01
0.99026136E-01
0.43799379E-02
0.17822438E-03
0.12372364E-04
0.75798118E-06
0.17975933E-06
0.11553870E-06
0.17202350E-07
0.99844737E-08
0.29376581E-07
0.28576453E-07
0.13836762E-07
0.27955067E-08
0.64651362E-09
0.28879390E-08
0.49749622E-08
0.50595172E-08
0.36327101E-08
0.18890158E-08
0.63439171E-09
0.10181643E-09
0.13284486E-09
0.41668077E-09
0.69140932E-09
0.83494561E-09
0.81580859E-09
0.67666378E-09
0.48188381E-09
0.29281547E-09
0.14352780E-09
0.50340843E-10
0.11083025E-10
0.11269762E-10
0.35171352E-10
0.68438921E-10
0.98971782E-10
0.12020281E-09
0.12979967E-09
0.12786756E-09
0.11666360E-09
0.99282589E-10
0.79126310E-10
0.58682663E-10
0.40161215E-10
0.24874217E-10
0.13531901E-10
