atomic number =   40
effective nuclear charge =   40
electron count =   28
net charge =   12
basis set = approximate basis set limit (UGBS)      
exchange correlation functional = PW91PW91            
cutoff radius (picometer) =  300
number of shells =   50
prepared by = Thomas A. Manz      
prepared date = July 2010           
net magnetization =    0
density in atomic units:
0.83450625E+04
0.11152085E+03
0.36730549E+02
0.21052992E+02
0.10115862E+02
0.39332654E+01
0.14386286E+01
0.54492319E+00
0.19935036E+00
0.73969200E-01
0.26885612E-01
0.95807072E-02
0.37158276E-02
0.14342925E-02
0.56222203E-03
0.21942890E-03
0.83199739E-04
0.33001907E-04
0.12877132E-04
0.50976605E-05
0.20822622E-05
0.87476934E-06
0.37922507E-06
0.16655409E-06
0.72561484E-07
0.31004852E-07
0.12891219E-07
0.52828444E-08
0.20428181E-08
0.75239109E-09
0.27922875E-09
0.11209172E-09
0.56068438E-10
0.35788653E-10
0.26919222E-10
0.22557388E-10
0.20896944E-10
0.21284398E-10
0.23048364E-10
0.25310747E-10
0.27287450E-10
0.28519211E-10
0.28581333E-10
0.27547398E-10
0.25508626E-10
0.22777757E-10
0.19609455E-10
0.16320861E-10
0.13183714E-10
0.10397531E-10
