atomic number =   54
effective nuclear charge =   54
electron count =   28
net charge =   26
basis set = approximate basis set limit (UGBS)      
exchange correlation functional = PW91PW91            
cutoff radius (picometer) =  300
number of shells =   50
prepared by = Thomas A. Manz      
prepared date = July 2010           
net magnetization =    0
density in atomic units:
0.21946812E+05
0.15227052E+03
0.58299328E+02
0.16216196E+02
0.34914241E+01
0.58386862E+00
0.93275003E-01
0.16635818E-01
0.27493129E-02
0.47116366E-03
0.83579223E-04
0.14275211E-04
0.26187884E-05
0.41655514E-06
0.60990082E-07
0.10306759E-07
0.18939801E-08
0.38752879E-09
0.71832978E-09
0.14155329E-08
0.16996001E-08
0.14744227E-08
0.99629249E-09
0.53385757E-09
0.23314722E-09
0.11541060E-09
0.12349080E-09
0.18127753E-09
0.23538110E-09
0.25710237E-09
0.24224314E-09
0.20116102E-09
0.14927506E-09
0.98818946E-10
0.58621871E-10
0.32497904E-10
0.19329141E-10
0.16187794E-10
0.19562402E-10
0.25837985E-10
0.32171151E-10
0.36942154E-10
0.39102863E-10
0.38613123E-10
0.35859003E-10
0.31504851E-10
0.26231668E-10
0.20735101E-10
0.15548684E-10
0.11095081E-10
