atomic number =  107
effective nuclear charge =  107
electron count =   78
net charge =   29
basis set = approximate basis set limit (UGBS)      
exchange correlation functional = PW91PW91            
cutoff radius (picometer) =  300
number of shells =   50
prepared by = Thomas A. Manz      
prepared date = July 2010           
net magnetization =    0
density in atomic units:
0.18423148E+06
0.36541461E+03
0.12184478E+03
0.31988630E+02
0.15368425E+02
0.82204266E+01
0.37223938E+01
0.15732224E+01
0.61295480E+00
0.23356277E+00
0.84720105E-01
0.29519014E-01
0.11097564E-01
0.41309861E-02
0.15565979E-02
0.58133132E-03
0.20873561E-03
0.77803270E-04
0.28191847E-04
0.10311765E-04
0.39124507E-05
0.15472921E-05
0.64182223E-06
0.27252784E-06
0.11552643E-06
0.49249934E-07
0.22537206E-07
0.12670117E-07
0.89773939E-08
0.72671500E-08
0.58989116E-08
0.44522617E-08
0.30473430E-08
0.18508778E-08
0.99893127E-09
0.52441829E-09
0.35911460E-09
0.40846759E-09
0.57538047E-09
0.76838130E-09
0.92671482E-09
0.10201958E-08
0.10365364E-08
0.98361175E-09
0.87734098E-09
0.73978423E-09
0.58949756E-09
0.44372647E-09
0.31478850E-09
0.21084803E-09
