atomic number =   24
effective nuclear charge =   24
electron count =    4
net charge =   20
basis set = approximate basis set limit (UGBS)      
exchange correlation functional = PW91PW91            
cutoff radius (picometer) =  300
number of shells =   50
prepared by = Thomas A. Manz      
prepared date = July 2010           
net magnetization =    0
density in atomic units:
0.15583405E+04
0.15328736E+02
0.62714496E+01
0.17467419E+01
0.40311623E+00
0.75237237E-01
0.13414647E-01
0.26443515E-02
0.49284141E-03
0.92646078E-04
0.16551923E-04
0.26700193E-05
0.48313501E-06
0.88008370E-07
0.17871724E-07
0.42055031E-08
0.10394423E-08
0.28572639E-09
0.88471917E-10
0.45082285E-10
0.32804731E-10
0.22204249E-10
0.11831080E-10
0.45541379E-11
0.14855663E-11
0.16821563E-11
0.33076003E-11
0.48174225E-11
0.55007496E-11
0.52038885E-11
0.42147176E-11
0.29336258E-11
0.17355552E-11
0.81856554E-12
0.26906144E-12
0.60065166E-13
0.92460883E-13
0.26368952E-12
0.48287958E-12
0.67489547E-12
0.80122264E-12
0.85038373E-12
0.82510615E-12
0.74263263E-12
0.62341663E-12
0.48949039E-12
0.35649934E-12
0.23816967E-12
0.14239539E-12
0.72930702E-13
