atomic number =   57
effective nuclear charge =   57
electron count =   18
net charge =   39
basis set = approximate basis set limit (UGBS)      
exchange correlation functional = PW91PW91            
cutoff radius (picometer) =  300
number of shells =   50
prepared by = Thomas A. Manz      
prepared date = July 2010           
net magnetization =    0
density in atomic units:
0.26046562E+05
0.81861305E+02
0.29492502E+02
0.70505562E+01
0.12021692E+01
0.14951847E+00
0.17189391E-01
0.22067153E-02
0.24840393E-03
0.28722689E-04
0.37436575E-05
0.51367920E-06
0.76903106E-07
0.13714833E-07
0.76453901E-08
0.45498365E-08
0.15540232E-08
0.49343457E-09
0.79718837E-09
0.13377451E-08
0.14577494E-08
0.11481380E-08
0.68405365E-09
0.30077160E-09
0.97409178E-10
0.58625209E-10
0.11132228E-09
0.18176878E-09
0.22829998E-09
0.23422586E-09
0.20511258E-09
0.15612585E-09
0.10384645E-09
0.58981903E-10
0.27823664E-10
0.11457550E-10
0.69205254E-11
0.10328126E-10
0.17816937E-10
0.25848065E-10
0.32206220E-10
0.35844525E-10
0.36411221E-10
0.34317823E-10
0.30244068E-10
0.25076359E-10
0.19509915E-10
0.14204060E-10
0.95975883E-11
0.59718788E-11
