atomic number =   26
effective nuclear charge =   26
electron count =   18
net charge =    8
basis set = approximate basis set limit (UGBS)      
exchange correlation functional = PW91PW91            
cutoff radius (picometer) =  300
number of shells =   50
prepared by = Thomas A. Manz      
prepared date = May 2010            
net magnetization =    0
density in atomic units:
0.21247375E+04
0.76698135E+02
0.20742115E+02
0.54497156E+01
0.29255023E+01
0.22251191E+01
0.16108131E+01
0.10820841E+01
0.67468941E+00
0.40728110E+00
0.23631206E+00
0.13366613E+00
0.77911943E-01
0.44629168E-01
0.25642518E-01
0.14639269E-01
0.82824668E-02
0.48235562E-02
0.27788926E-02
0.16012429E-02
0.92633342E-03
0.53642574E-03
0.31302590E-03
0.18328373E-03
0.10736463E-03
0.63025473E-04
0.37217611E-04
0.22348231E-04
0.13325186E-04
0.79195133E-05
0.47336753E-05
0.28141026E-05
0.16765335E-05
0.99198746E-06
0.58411752E-06
0.34555617E-06
0.20457969E-06
0.12052136E-06
0.70310492E-07
0.41228244E-07
0.24336741E-07
0.14235803E-07
0.83778469E-08
0.49588769E-08
0.29293405E-08
0.17434908E-08
0.10389991E-08
0.62303507E-09
0.37761216E-09
0.23342672E-09
