atomic number =   61
effective nuclear charge =   61
electron count =   54
net charge =    7
basis set = approximate basis set limit (UGBS)      
exchange correlation functional = PW91PW91            
cutoff radius (picometer) =  300
number of shells =   50
prepared by = Thomas A. Manz      
prepared date = July 2010           
net magnetization =    0
density in atomic units:
0.32775469E+05
0.20397061E+03
0.56559326E+02
0.16941746E+02
0.11409671E+02
0.72168365E+01
0.38429344E+01
0.20102642E+01
0.10976069E+01
0.68834388E+00
0.48610044E+00
0.36917186E+00
0.29240537E+00
0.22957674E+00
0.17857939E+00
0.13628286E+00
0.10215797E+00
0.76690257E-01
0.56641567E-01
0.41495219E-01
0.30263798E-01
0.21969255E-01
0.15951132E-01
0.11553249E-01
0.83369259E-02
0.59981849E-02
0.43168864E-02
0.31298357E-02
0.22542402E-02
0.16195007E-02
0.11682393E-02
0.84136048E-03
0.60841930E-03
0.43943097E-03
0.31766031E-03
0.23100934E-03
0.16860782E-03
0.12296239E-03
0.89312874E-04
0.65152642E-04
0.47704110E-04
0.34726592E-04
0.25354231E-04
0.18540319E-04
0.13514255E-04
0.98669043E-05
0.71816416E-05
0.52202663E-05
0.37885957E-05
0.27533320E-05
