atomic number =   77
effective nuclear charge =   77
electron count =   28
net charge =   49
basis set = approximate basis set limit (UGBS)      
exchange correlation functional = PW91PW91            
cutoff radius (picometer) =  300
number of shells =   50
prepared by = Thomas A. Manz      
prepared date = July 2010           
net magnetization =    0
density in atomic units:
0.68645688E+05
0.22950777E+03
0.28701326E+02
0.19107878E+01
0.10944329E+00
0.47104028E-02
0.17741714E-03
0.10588958E-04
0.72942885E-06
0.21955967E-06
0.11858456E-06
0.14790702E-07
0.91655412E-08
0.28979805E-07
0.27881232E-07
0.13120672E-07
0.23654338E-08
0.47351034E-09
0.28122127E-08
0.48762940E-08
0.49169619E-08
0.34809167E-08
0.17661135E-08
0.55615323E-09
0.62497896E-10
0.11587853E-09
0.40576750E-09
0.67654771E-09
0.81308554E-09
0.78873502E-09
0.64831290E-09
0.45619830E-09
0.27218952E-09
0.12887032E-09
0.41139508E-10
0.59641892E-11
0.86622194E-11
0.33650450E-10
0.66949932E-10
0.96840092E-10
0.11715223E-09
0.12600755E-09
0.12340934E-09
0.11196655E-09
0.94662916E-10
0.74874343E-10
0.55000206E-10
0.37130479E-10
0.22539573E-10
0.11821596E-10
