atomic number =   69
effective nuclear charge =   69
electron count =   18
net charge =   51
basis set = approximate basis set limit (UGBS)      
exchange correlation functional = PW91PW91            
cutoff radius (picometer) =  300
number of shells =   50
prepared by = Thomas A. Manz      
prepared date = July 2010           
net magnetization =    0
density in atomic units:
0.48201949E+05
0.10028829E+03
0.22637342E+02
0.24071827E+01
0.19657817E+00
0.11135206E-01
0.59791765E-03
0.47321413E-04
0.30380456E-05
0.21886898E-06
0.10088604E-06
0.17151924E-07
0.10742153E-07
0.29360821E-07
0.28897755E-07
0.14606512E-07
0.34580205E-08
0.91663199E-09
0.28672789E-08
0.49017990E-08
0.50789635E-08
0.37539296E-08
0.20501278E-08
0.77166412E-09
0.18340926E-09
0.16015560E-09
0.41041628E-09
0.67520672E-09
0.82523516E-09
0.82002249E-09
0.69411654E-09
0.50776011E-09
0.32078920E-09
0.16844548E-09
0.69156791E-10
0.22949522E-10
0.16915079E-10
0.36159825E-10
0.66673417E-10
0.96266065E-10
0.11789821E-09
0.12876636E-09
0.12835671E-09
0.11864865E-09
0.10247528E-09
0.83092852E-10
0.62972558E-10
0.44367340E-10
0.28678337E-10
0.16733583E-10
