atomic number =   77
effective nuclear charge =   77
electron count =   12
net charge =   65
basis set = approximate basis set limit (UGBS)      
exchange correlation functional = PW91PW91            
cutoff radius (picometer) =  300
number of shells =   50
prepared by = Thomas A. Manz      
prepared date = July 2010           
net magnetization =    0
density in atomic units:
0.68293141E+05
0.35692760E+02
0.39274836E+01
0.21792904E+00
0.94023393E-02
0.25814000E-03
0.94835732E-05
0.11226430E-05
0.52599361E-07
0.16870015E-06
0.11654243E-06
0.14517428E-07
0.88245153E-08
0.28812636E-07
0.27801260E-07
0.13049251E-07
0.23004771E-08
0.42961665E-09
0.27900731E-08
0.48653592E-08
0.49076920E-08
0.34695411E-08
0.17536222E-08
0.54497384E-09
0.54322945E-10
0.11096790E-09
0.40329967E-09
0.67542744E-09
0.81224899E-09
0.78764512E-09
0.64680661E-09
0.45431753E-09
0.27020597E-09
0.12703504E-09
0.39610634E-10
0.48153569E-11
0.78803014E-11
0.33174141E-10
0.66698813E-10
0.96725794E-10
0.11707511E-09
0.12591148E-09
0.12328903E-09
0.11178095E-09
0.94432510E-10
0.74612087E-10
0.54722307E-10
0.36850349E-10
0.22270474E-10
0.11583876E-10
