atomic number =   51
effective nuclear charge =   51
electron count =   36
net charge =   15
basis set = approximate basis set limit (UGBS)      
exchange correlation functional = PW91PW91            
cutoff radius (picometer) =  300
number of shells =   50
prepared by = Thomas A. Manz      
prepared date = July 2010           
net magnetization =    0
density in atomic units:
0.18327191E+05
0.14479901E+03
0.59272800E+02
0.19010025E+02
0.60784016E+01
0.30283689E+01
0.20181015E+01
0.13223789E+01
0.78832716E+00
0.44454753E+00
0.23598786E+00
0.12002452E+00
0.62693857E-01
0.31827077E-01
0.16100468E-01
0.80526816E-02
0.39646975E-02
0.20213965E-02
0.10154455E-02
0.50905987E-03
0.25556007E-03
0.12776228E-03
0.64077074E-04
0.32086220E-04
0.15992000E-04
0.79759338E-05
0.40116479E-05
0.20732850E-05
0.10706962E-05
0.55593620E-06
0.29370955E-06
0.15534786E-06
0.82747434E-07
0.43707370E-07
0.22801208E-07
0.11813404E-07
0.60099326E-08
0.29636826E-08
0.14017375E-08
0.65239208E-09
0.30946651E-09
0.15855875E-09
0.98962165E-10
0.76248161E-10
0.65547706E-10
0.57192140E-10
0.48015206E-10
0.38024913E-10
0.28150596E-10
0.19470141E-10
