atomic number =   23
effective nuclear charge =   23
electron count =    4
net charge =   19
basis set = approximate basis set limit (UGBS)      
exchange correlation functional = PW91PW91            
cutoff radius (picometer) =  400
number of shells =   75
prepared by = Thomas A. Manz      
prepared date = July 2010           
net magnetization =    0
density in atomic units:
0.13715422E+04
0.17325432E+02
0.84001265E+01
0.34070525E+01
0.10648245E+01
0.27606601E+00
0.69662265E-01
0.17143728E-01
0.39228061E-02
0.92472427E-03
0.22120518E-03
0.53242846E-04
0.12283364E-04
0.28760630E-05
0.68453670E-06
0.17007739E-06
0.43884139E-07
0.12017181E-07
0.33635601E-08
0.92498781E-09
0.23210298E-09
0.60872307E-10
0.26955218E-10
0.21069198E-10
0.16013283E-10
0.96900344E-11
0.44205655E-11
0.15495191E-11
0.92971323E-12
0.17106861E-11
0.28671820E-11
0.37619166E-11
0.40979442E-11
0.38421701E-11
0.31891625E-11
0.23524954E-11
0.15165750E-11
0.83777695E-12
0.37448346E-12
0.11739043E-12
0.40535443E-13
0.91924617E-13
0.21333961E-12
0.35686620E-12
0.48525821E-12
0.57753005E-12
0.62415730E-12
0.62529029E-12
0.58754190E-12
0.52111912E-12
0.43792807E-12
0.34877084E-12
0.26136206E-12
0.18301175E-12
0.11856053E-12
0.68288440E-13
0.32854900E-13
0.11663985E-13
0.24747114E-14
0.27141100E-14
0.98504011E-14
0.21301279E-13
0.34955576E-13
0.49060053E-13
0.62190684E-13
0.73304725E-13
0.81712930E-13
0.87328731E-13
0.90043370E-13
0.89921072E-13
0.87486171E-13
0.83053898E-13
0.77049044E-13
0.69886845E-13
0.62148779E-13
