atomic number =   76
effective nuclear charge =   76
electron count =   68
net charge =    8
basis set = approximate basis set limit (UGBS)      
exchange correlation functional = PW91PW91            
cutoff radius (picometer) =  300
number of shells =   50
prepared by = Thomas A. Manz      
prepared date = July 2010           
net magnetization =    0
density in atomic units:
0.66474789E+05
0.26545294E+03
0.66887154E+02
0.39225655E+02
0.20224510E+02
0.85177116E+01
0.39355652E+01
0.22255113E+01
0.13796352E+01
0.89593488E+00
0.57335597E+00
0.35819525E+00
0.22733812E+00
0.14094287E+00
0.87003775E-01
0.53030875E-01
0.31900033E-01
0.19592416E-01
0.11870655E-01
0.71716062E-02
0.43392265E-02
0.26235278E-02
0.15952716E-02
0.97197143E-03
0.59150427E-03
0.36015979E-03
0.22012387E-03
0.13645356E-03
0.83894731E-04
0.51369680E-04
0.31609346E-04
0.19354558E-04
0.11884227E-04
0.72608959E-05
0.44266158E-05
0.27174617E-05
0.16744921E-05
0.10309786E-05
0.63155471E-06
0.39027913E-06
0.24354270E-06
0.15132746E-06
0.94842363E-07
0.59875468E-07
0.37776250E-07
0.23974131E-07
0.15170846E-07
0.95906518E-08
0.60454908E-08
0.38137498E-08
