atomic number =   77
effective nuclear charge =   77
electron count =   18
net charge =   59
basis set = approximate basis set limit (UGBS)      
exchange correlation functional = PW91PW91            
cutoff radius (picometer) =  300
number of shells =   50
prepared by = Thomas A. Manz      
prepared date = July 2010           
net magnetization =    0
density in atomic units:
0.68329898E+05
0.11105372E+03
0.15371646E+02
0.95439583E+00
0.48114281E-01
0.16848168E-02
0.50491286E-04
0.29651010E-05
0.17391254E-06
0.17989393E-06
0.11741481E-06
0.14534328E-07
0.88955954E-08
0.28915593E-07
0.27876975E-07
0.13084189E-07
0.23089224E-08
0.43011755E-09
0.27925469E-08
0.48722346E-08
0.49166560E-08
0.34778993E-08
0.17596121E-08
0.54827182E-09
0.55581390E-10
0.11118311E-09
0.40331580E-09
0.67570771E-09
0.81297352E-09
0.78869289E-09
0.64799455E-09
0.45550133E-09
0.27118846E-09
0.12775052E-09
0.40067102E-10
0.50589173E-11
0.79785241E-11
0.33191654E-10
0.66699500E-10
0.96737549E-10
0.11712042E-09
0.12600375E-09
0.12340334E-09
0.11193699E-09
0.94601604E-10
0.74782215E-10
0.54879462E-10
0.36983767E-10
0.22384629E-10
0.11671756E-10
