atomic number =   45
effective nuclear charge =   45
electron count =   36
net charge =    9
basis set = approximate basis set limit (UGBS)      
exchange correlation functional = PW91PW91            
cutoff radius (picometer) =  300
number of shells =   50
prepared by = Thomas A. Manz      
prepared date = July 2010           
net magnetization =    0
density in atomic units:
0.12234712E+05
0.12366943E+03
0.50158825E+02
0.22559341E+02
0.81369209E+01
0.30302279E+01
0.16968884E+01
0.12239783E+01
0.88940692E+00
0.62246102E+00
0.41045156E+00
0.25835878E+00
0.16336761E+00
0.10039483E+00
0.61336212E-01
0.37014004E-01
0.22066504E-01
0.13456139E-01
0.81013665E-02
0.48653991E-02
0.29268754E-02
0.17589090E-02
0.10626111E-02
0.64284442E-03
0.38815007E-03
0.23431057E-03
0.14187227E-03
0.87093220E-04
0.53002092E-04
0.32117790E-04
0.19569703E-04
0.11875703E-04
0.72406528E-05
0.44038575E-05
0.26817677E-05
0.16518320E-05
0.10271244E-05
0.64205454E-06
0.40229756E-06
0.25618417E-06
0.16587188E-06
0.10777018E-06
0.71040496E-07
0.47367188E-07
0.31663426E-07
0.21297613E-07
0.14271144E-07
0.95080859E-08
0.62682912E-08
0.40830965E-08
