atomic number =   25
effective nuclear charge =   25
electron count =    2
net charge =   23
basis set = approximate basis set limit (UGBS)      
exchange correlation functional = PW91PW91            
cutoff radius (picometer) =  300
number of shells =   50
prepared by = Thomas A. Manz      
prepared date = July 2010           
net magnetization =    0
density in atomic units:
0.16165148E+04
0.26593809E+01
0.16948711E-01
0.10655979E-03
0.54979779E-06
0.14159912E-08
0.87208596E-08
0.31864784E-08
0.36604655E-09
0.14455778E-08
0.84640606E-09
0.84062757E-10
0.82919019E-10
0.23774374E-09
0.21689538E-09
0.96874564E-10
0.15145267E-10
0.37153778E-11
0.23653853E-10
0.39677050E-10
0.39152345E-10
0.27172849E-10
0.13424665E-10
0.39752767E-11
0.30761149E-12
0.93986266E-12
0.33521341E-11
0.55235161E-11
0.65712362E-11
0.63201284E-11
0.51523386E-11
0.35899326E-11
0.21121742E-11
0.97442985E-12
0.28893283E-12
0.25334923E-13
0.62299517E-13
0.27342183E-12
0.54637181E-12
0.78776059E-12
0.94948604E-12
0.10169441E-11
0.99247737E-12
0.89712271E-12
0.75550910E-12
0.59486563E-12
0.43438414E-12
0.29089990E-12
0.17423236E-12
0.89240782E-13
