atomic number =   19
effective nuclear charge =   19
electron count =   18
net charge =    1
basis set = approximate basis set limit (UGBS)      
exchange correlation functional = PW91PW91            
cutoff radius (picometer) =  300
number of shells =   50
prepared by = Thomas A. Manz      
prepared date = July 2010           
net magnetization =    0
density in atomic units:
0.83358112E+03
0.43995888E+02
0.20723259E+02
0.82345715E+01
0.30226099E+01
0.12241310E+01
0.76219302E+00
0.63260913E+00
0.54771930E+00
0.46210521E+00
0.37179500E+00
0.28762943E+00
0.22067772E+00
0.16515644E+00
0.12245880E+00
0.89534424E-01
0.64728066E-01
0.47274061E-01
0.34164652E-01
0.24624873E-01
0.17758662E-01
0.12799375E-01
0.92597343E-02
0.67045558E-02
0.48498227E-02
0.35073713E-02
0.25429418E-02
0.18608617E-02
0.13553153E-02
0.98618784E-03
0.72135695E-03
0.52740047E-03
0.38746090E-03
0.28453162E-03
0.20922630E-03
0.15481937E-03
0.11498348E-03
0.85366279E-04
0.63144835E-04
0.46912959E-04
0.34975656E-04
0.25941987E-04
0.19292787E-04
0.14369716E-04
0.10670416E-04
0.79350693E-05
0.58836645E-05
0.43547179E-05
0.32174605E-05
0.23801815E-05
