atomic number =   61
effective nuclear charge =   61
electron count =   12
net charge =   49
basis set = approximate basis set limit (UGBS)      
exchange correlation functional = PW91PW91            
cutoff radius (picometer) =  300
number of shells =   50
prepared by = Thomas A. Manz      
prepared date = July 2010           
net magnetization =    0
density in atomic units:
0.32418676E+05
0.45822544E+02
0.77007003E+01
0.13191795E+01
0.16010740E+00
0.13690023E-01
0.10951193E-02
0.10027335E-03
0.69768262E-05
0.41463434E-06
0.52637553E-07
0.90957686E-08
0.82639779E-08
0.13895218E-07
0.11462816E-07
0.49406657E-08
0.79976242E-09
0.30310177E-09
0.13502998E-08
0.21445863E-08
0.20750899E-08
0.14261645E-08
0.70144651E-09
0.20996627E-09
0.22759706E-10
0.59107420E-10
0.18640300E-09
0.29941660E-09
0.35268899E-09
0.33755379E-09
0.27459146E-09
0.19122214E-09
0.11272475E-09
0.52408178E-10
0.16114596E-10
0.21796837E-11
0.41563072E-11
0.15346674E-10
0.29795149E-10
0.42558995E-10
0.51084182E-10
0.54626078E-10
0.53282063E-10
0.48173972E-10
0.40594857E-10
0.31999250E-10
0.23420542E-10
0.15741299E-10
0.94900390E-11
0.49272682E-11
