atomic number =  103
effective nuclear charge =  103
electron count =  100
net charge =    3
basis set = approximate basis set limit (UGBS)      
exchange correlation functional = PW91PW91            
cutoff radius (picometer) =  300
number of shells =   50
prepared by = Thomas A. Manz      
prepared date = July 2010           
net magnetization =    0
density in atomic units:
0.16611800E+06
0.35952499E+03
0.12512579E+03
0.35119324E+02
0.17633463E+02
0.11377561E+02
0.67450681E+01
0.40076947E+01
0.24501612E+01
0.15937018E+01
0.10645651E+01
0.72088879E+00
0.50440520E+00
0.34970385E+00
0.24257256E+00
0.16660506E+00
0.11331134E+00
0.78234263E-01
0.53460520E-01
0.36467772E-01
0.24914628E-01
0.17018357E-01
0.11678081E-01
0.80255363E-02
0.55111493E-02
0.37877019E-02
0.26127270E-02
0.18238366E-02
0.12675927E-02
0.88058773E-03
0.61585812E-03
0.43065782E-03
0.30292972E-03
0.21307050E-03
0.15016268E-03
0.10670359E-03
0.76216122E-04
0.54496570E-04
0.38889957E-04
0.27942897E-04
0.20212439E-04
0.14570724E-04
0.10559451E-04
0.76833212E-05
0.55843816E-05
0.40741038E-05
0.29683877E-05
0.21634980E-05
0.15769180E-05
0.11532514E-05
