atomic number =   76
effective nuclear charge =   76
electron count =   28
net charge =   48
basis set = approximate basis set limit (UGBS)      
exchange correlation functional = PW91PW91            
cutoff radius (picometer) =  300
number of shells =   50
prepared by = Thomas A. Manz      
prepared date = July 2010           
net magnetization =    0
density in atomic units:
0.65871406E+05
0.22835933E+03
0.30335636E+02
0.21490893E+01
0.13030335E+00
0.59117209E-02
0.23799707E-03
0.15207704E-04
0.10955472E-05
0.23693691E-06
0.11723439E-06
0.15357864E-07
0.96144968E-08
0.28927456E-07
0.27752142E-07
0.13129912E-07
0.24614883E-08
0.55784222E-09
0.28475271E-08
0.48751101E-08
0.49057935E-08
0.34760907E-08
0.17715408E-08
0.56772864E-09
0.74817499E-10
0.12522877E-09
0.41103437E-09
0.67863898E-09
0.81307605E-09
0.78816276E-09
0.64814032E-09
0.45665663E-09
0.27328706E-09
0.13040417E-09
0.42818447E-10
0.75273494E-11
0.99495828E-11
0.34596354E-10
0.67565800E-10
0.97169564E-10
0.11731149E-09
0.12602031E-09
0.12346360E-09
0.11201692E-09
0.94758479E-10
0.75012510E-10
0.55179451E-10
0.37350116E-10
0.22759929E-10
0.12047104E-10
