atomic number =   75
effective nuclear charge =   75
electron count =   54
net charge =   21
basis set = approximate basis set limit (UGBS)      
exchange correlation functional = PW91PW91            
cutoff radius (picometer) =  300
number of shells =   50
prepared by = Thomas A. Manz      
prepared date = July 2010           
net magnetization =    0
density in atomic units:
0.63731125E+05
0.24767702E+03
0.47683525E+02
0.25737009E+02
0.13238902E+02
0.52138934E+01
0.22999372E+01
0.13765012E+01
0.95605558E+00
0.69021916E+00
0.48160478E+00
0.32245857E+00
0.21547118E+00
0.13951549E+00
0.89367673E-01
0.56289531E-01
0.34899831E-01
0.22002341E-01
0.13661715E-01
0.84452610E-02
0.52213436E-02
0.32238222E-02
0.20008599E-02
0.12438874E-02
0.77247049E-03
0.47980799E-03
0.29906200E-03
0.18884368E-03
0.11827095E-03
0.73755320E-04
0.46200901E-04
0.28798710E-04
0.18002025E-04
0.11199146E-04
0.69523094E-05
0.43448126E-05
0.27250098E-05
0.17062752E-05
0.10622691E-05
0.66612830E-06
0.42077616E-06
0.26411976E-06
0.16680960E-06
0.10583599E-06
0.66932870E-07
0.42479119E-07
0.26847573E-07
0.16931658E-07
0.10650422E-07
0.67122783E-08
