atomic number =   71
effective nuclear charge =   71
electron count =    4
net charge =   67
basis set = approximate basis set limit (UGBS)      
exchange correlation functional = PW91PW91            
cutoff radius (picometer) =  300
number of shells =   50
prepared by = Thomas A. Manz      
prepared date = July 2010           
net magnetization =    0
density in atomic units:
0.51183250E+05
0.53655591E+01
0.17405599E-01
0.24007019E-04
0.27907345E-05
0.63260933E-06
0.48722444E-06
0.24651649E-06
0.19764991E-07
0.87849756E-07
0.57515923E-07
0.67892652E-08
0.43033874E-08
0.14152787E-07
0.13587160E-07
0.63337122E-08
0.10861360E-08
0.18717973E-09
0.13467556E-08
0.23594122E-08
0.23789606E-08
0.16784217E-08
0.84482149E-09
0.25892896E-09
0.22174495E-10
0.50783752E-10
0.19318769E-09
0.32530728E-09
0.39156275E-09
0.37955891E-09
0.31138753E-09
0.21830482E-09
0.12940193E-09
0.60382754E-10
0.18356048E-10
0.17451216E-11
0.33849657E-11
0.15705862E-10
0.31943864E-10
0.46467694E-10
0.56289775E-10
0.60530067E-10
0.59223813E-10
0.53656739E-10
0.45290945E-10
0.35738548E-10
0.26151917E-10
0.17565418E-10
0.10560402E-10
0.54435172E-11
