atomic number =   21
effective nuclear charge =   21
electron count =   18
net charge =    3
basis set = approximate basis set limit (UGBS)      
exchange correlation functional = PW91PW91            
cutoff radius (picometer) =  300
number of shells =   50
prepared by = Thomas A. Manz      
prepared date = July 2010           
net magnetization =    0
density in atomic units:
0.11131561E+04
0.54061634E+02
0.22326275E+02
0.73754153E+01
0.25816629E+01
0.13465456E+01
0.10594953E+01
0.89192605E+00
0.71057397E+00
0.53813034E+00
0.38620213E+00
0.26667434E+00
0.18468873E+00
0.12491136E+00
0.84018201E-01
0.55826500E-01
0.36686976E-01
0.24512189E-01
0.16192580E-01
0.10673398E-01
0.70470227E-02
0.46522040E-02
0.30870361E-02
0.20519181E-02
0.13623466E-02
0.90450025E-03
0.60216198E-03
0.40544153E-03
0.27114496E-03
0.18084174E-03
0.12125737E-03
0.81125203E-04
0.54528871E-04
0.36589878E-04
0.24567180E-04
0.16621612E-04
0.11296870E-04
0.76748483E-05
0.51923307E-05
0.35332439E-05
0.24173667E-05
0.16433117E-05
0.11210506E-05
0.76627117E-06
0.52148522E-06
0.35540984E-06
0.24099992E-06
0.16288837E-06
0.10968853E-06
0.73859859E-07
