atomic number =   21
effective nuclear charge =   21
electron count =    4
net charge =   17
basis set = approximate basis set limit (UGBS)      
exchange correlation functional = PW91PW91            
cutoff radius (picometer) =  300
number of shells =   50
prepared by = Thomas A. Manz      
prepared date = July 2010           
net magnetization =    0
density in atomic units:
0.10505958E+04
0.12738426E+02
0.58409653E+01
0.22228057E+01
0.68714929E+00
0.17350374E+00
0.41822299E-01
0.10842158E-01
0.26638517E-02
0.65328385E-03
0.15289332E-03
0.33651282E-04
0.82728793E-05
0.20081709E-05
0.49572981E-06
0.12307589E-06
0.28950703E-07
0.72979898E-08
0.18102643E-08
0.47892579E-09
0.14460062E-09
0.49025641E-10
0.16744920E-10
0.44800405E-11
0.49780980E-12
0.39409573E-12
0.17023242E-11
0.29728353E-11
0.36134698E-11
0.34991131E-11
0.28454069E-11
0.19604568E-11
0.11264490E-11
0.49498480E-12
0.13034125E-12
0.11359517E-13
0.64176081E-13
0.21245459E-12
0.38879371E-12
0.53785855E-12
0.63232221E-12
0.66520850E-12
0.64079146E-12
0.57251691E-12
0.47678793E-12
0.37104469E-12
0.26731777E-12
0.17599796E-12
0.10291154E-12
0.50732378E-13
