atomic number =   54
effective nuclear charge =   54
electron count =    4
net charge =   50
basis set = approximate basis set limit (UGBS)      
exchange correlation functional = PW91PW91            
cutoff radius (picometer) =  300
number of shells =   50
prepared by = Thomas A. Manz      
prepared date = July 2010           
net magnetization =    0
density in atomic units:
0.21055391E+05
0.16132496E+02
0.31893817E+00
0.38826547E-02
0.58438283E-04
0.11915206E-05
0.20391249E-06
0.11094819E-06
0.96472537E-08
0.42274227E-07
0.27047131E-07
0.30708336E-08
0.21728515E-08
0.68948576E-08
0.65320975E-08
0.30095759E-08
0.50280130E-09
0.96513318E-10
0.66826428E-09
0.11550373E-08
0.11567659E-08
0.81189749E-09
0.40614179E-09
0.12306919E-09
0.10194584E-10
0.25785903E-10
0.95821635E-10
0.16013285E-09
0.19195355E-09
0.18554716E-09
0.15185878E-09
0.10623193E-09
0.62791605E-10
0.29174999E-10
0.87847576E-11
0.81070871E-12
0.17233868E-11
0.78201846E-11
0.15794073E-10
0.22891118E-10
0.27672489E-10
0.29715085E-10
0.29039507E-10
0.26292114E-10
0.22168890E-10
0.17476220E-10
0.12777580E-10
0.85749489E-11
0.51468530E-11
0.26455743E-11
