atomic number =  109
effective nuclear charge =  109
electron count =   60
net charge =   49
basis set = approximate basis set limit (UGBS)      
exchange correlation functional = PW91PW91            
cutoff radius (picometer) =  300
number of shells =   50
prepared by = Thomas A. Manz      
prepared date = July 2010           
net magnetization =    0
density in atomic units:
0.19297648E+06
0.35421860E+03
0.11604730E+03
0.23015186E+02
0.33202074E+01
0.36018294E+00
0.37885759E-01
0.51757377E-02
0.66467444E-03
0.79262376E-04
0.94875386E-05
0.12308271E-05
0.22432093E-06
0.14981200E-06
0.15194148E-06
0.98570155E-07
0.39466890E-07
0.13059349E-07
0.12308959E-07
0.19880257E-07
0.23359162E-07
0.20299291E-07
0.13792626E-07
0.74574222E-08
0.33279077E-08
0.17176202E-08
0.18419336E-08
0.26440168E-08
0.33824243E-08
0.36611019E-08
0.34273300E-08
0.28303149E-08
0.20895758E-08
0.13759999E-08
0.81263374E-09
0.45050047E-09
0.27160851E-09
0.23313068E-09
0.28477368E-09
0.37496356E-09
0.46416321E-09
0.52961008E-09
0.55750238E-09
0.54770111E-09
0.50596527E-09
0.44227469E-09
0.36622641E-09
0.28778169E-09
0.21438382E-09
0.15185882E-09
