atomic number =   59
effective nuclear charge =   59
electron count =   30
net charge =   29
basis set = approximate basis set limit (UGBS)      
exchange correlation functional = PW91PW91            
cutoff radius (picometer) =  300
number of shells =   50
prepared by = Thomas A. Manz      
prepared date = July 2010           
net magnetization =    0
density in atomic units:
0.29373529E+05
0.17606389E+03
0.57065155E+02
0.12229811E+02
0.30331988E+01
0.10940171E+01
0.47071850E+00
0.20271656E+00
0.79272486E-01
0.29699925E-01
0.10497391E-01
0.35355140E-02
0.12670968E-02
0.43788817E-03
0.14933114E-03
0.49771843E-04
0.15825419E-04
0.52898554E-05
0.17258543E-05
0.56876365E-06
0.19301407E-06
0.67554453E-07
0.24769996E-07
0.94806705E-08
0.38153027E-08
0.17045865E-08
0.92073832E-09
0.62373889E-09
0.47914317E-09
0.37630643E-09
0.28258132E-09
0.19451507E-09
0.12082568E-09
0.66393134E-10
0.33483716E-10
0.19772132E-10
0.19613509E-10
0.27374209E-10
0.38090437E-10
0.47633373E-10
0.53785452E-10
0.55807307E-10
0.53799153E-10
0.48611924E-10
0.41323875E-10
0.33198978E-10
0.25085347E-10
0.17789282E-10
0.11773696E-10
0.72883765E-11
