atomic number =   48
effective nuclear charge =   48
electron count =   46
net charge =    2
basis set = approximate basis set limit (UGBS)      
exchange correlation functional = PW91PW91            
cutoff radius (picometer) =  300
number of shells =   50
prepared by = Thomas A. Manz      
prepared date = July 2010           
net magnetization =    0
density in atomic units:
0.15070806E+05
0.13771657E+03
0.57078312E+02
0.21219170E+02
0.72041068E+01
0.36485875E+01
0.27973342E+01
0.22166798E+01
0.16339487E+01
0.11482825E+01
0.77275145E+00
0.50868851E+00
0.34305990E+00
0.22982100E+00
0.15571210E+00
0.10597989E+00
0.72509237E-01
0.51028967E-01
0.35966218E-01
0.25547136E-01
0.18309074E-01
0.13202311E-01
0.96080182E-02
0.70313257E-02
0.51622433E-02
0.38032779E-02
0.28171164E-02
0.21096135E-02
0.15753852E-02
0.11767241E-02
0.88369113E-03
0.66349568E-03
0.50036103E-03
0.37730913E-03
0.28489594E-03
0.21641770E-03
0.16504317E-03
0.12588367E-03
0.95779142E-04
0.73225820E-04
0.56217239E-04
0.43002845E-04
0.33013650E-04
0.25406287E-04
0.19525987E-04
0.15048568E-04
0.11584508E-04
0.89200066E-05
0.68723007E-05
0.53109165E-05
