atomic number =   46
effective nuclear charge =   46
electron count =   28
net charge =   18
basis set = approximate basis set limit (UGBS)      
exchange correlation functional = PW91PW91            
cutoff radius (picometer) =  300
number of shells =   50
prepared by = Thomas A. Manz      
prepared date = July 2010           
net magnetization =    0
density in atomic units:
0.13083103E+05
0.12456089E+03
0.49633965E+02
0.21824179E+02
0.74724541E+01
0.20328934E+01
0.52348787E+00
0.14379229E+00
0.37821736E-01
0.10181488E-01
0.26778171E-02
0.66963781E-03
0.18457357E-03
0.50812225E-04
0.14695991E-04
0.44383114E-05
0.13196288E-05
0.41145060E-06
0.11933126E-06
0.32289083E-07
0.82205496E-08
0.19994464E-08
0.49448867E-09
0.12438717E-09
0.37101922E-10
0.40318242E-10
0.75707954E-10
0.11250770E-09
0.13539626E-09
0.13813668E-09
0.12362934E-09
0.98939142E-10
0.71953797E-10
0.47865871E-10
0.29970627E-10
0.19152648E-10
0.14253836E-10
0.13558170E-10
0.15303687E-10
0.17837884E-10
0.20017236E-10
0.21221329E-10
0.21196090E-10
0.20022631E-10
0.17954827E-10
0.15358418E-10
0.12536937E-10
0.97949079E-11
0.73458566E-11
0.53375984E-11
