atomic number =   70
effective nuclear charge =   70
electron count =   28
net charge =   42
basis set = approximate basis set limit (UGBS)      
exchange correlation functional = PW91PW91            
cutoff radius (picometer) =  300
number of shells =   50
prepared by = Thomas A. Manz      
prepared date = July 2010           
net magnetization =    0
density in atomic units:
0.50700820E+05
0.21595656E+03
0.40731525E+02
0.41896739E+01
0.35674408E+00
0.22519363E-01
0.13417751E-02
0.11689249E-03
0.97371185E-05
0.75055169E-06
0.12426591E-06
0.20216445E-07
0.12424848E-07
0.29903092E-07
0.29686380E-07
0.15798841E-07
0.45474247E-08
0.16032606E-08
0.31811298E-08
0.50312208E-08
0.51809805E-08
0.38909782E-08
0.22148348E-08
0.93168651E-09
0.31230485E-09
0.24806693E-09
0.46262619E-09
0.70425066E-09
0.84305996E-09
0.83550927E-09
0.71214074E-09
0.52906907E-09
0.34400036E-09
0.19151176E-09
0.90023142E-10
0.40392755E-10
0.30493708E-10
0.46045313E-10
0.73474962E-10
0.10086315E-09
0.12109924E-09
0.13130075E-09
0.13071021E-09
0.12116309E-09
0.10527603E-09
0.86161245E-10
0.66226066E-10
0.47657604E-10
0.31875821E-10
0.19722430E-10
