atomic number =   76
effective nuclear charge =   76
electron count =    2
net charge =   74
basis set = approximate basis set limit (UGBS)      
exchange correlation functional = PW91PW91            
cutoff radius (picometer) =  300
number of shells =   50
prepared by = Thomas A. Manz      
prepared date = July 2010           
net magnetization =    0
density in atomic units:
0.55567195E+05
0.22111429E-03
0.30950949E-04
0.10035209E-04
0.22435763E-05
0.60719969E-06
0.42824058E-06
0.22752293E-06
0.16978627E-07
0.76782335E-07
0.51509620E-07
0.62974093E-08
0.36103449E-08
0.12290296E-07
0.11941405E-07
0.56214109E-08
0.98363173E-09
0.15582399E-09
0.11559799E-08
0.20474451E-08
0.20751190E-08
0.14698949E-08
0.74318973E-09
0.22964347E-09
0.20137305E-10
0.42961322E-10
0.16624697E-09
0.28154176E-09
0.33987574E-09
0.33009717E-09
0.27122521E-09
0.19044438E-09
0.11309673E-09
0.52929171E-10
0.16187661E-10
0.15697969E-11
0.28646332E-11
0.13501504E-10
0.27591754E-10
0.40215897E-10
0.48785902E-10
0.52487119E-10
0.51413422E-10
0.46612290E-10
0.39360327E-10
0.31073043E-10
0.22755868E-10
0.15296190E-10
0.92061220E-11
0.47525308E-11
