atomic number =  107
effective nuclear charge =  107
electron count =   80
net charge =   27
basis set = approximate basis set limit (UGBS)      
exchange correlation functional = PW91PW91            
cutoff radius (picometer) =  500
number of shells =  100
prepared by = Thomas A. Manz      
prepared date = July 2010           
net magnetization =    0
density in atomic units:
0.12801820E+07
0.79121136E+03
0.22283224E+03
0.67684052E+02
0.23308399E+02
0.14489342E+02
0.88795109E+01
0.47394099E+01
0.24499266E+01
0.12689360E+01
0.67662513E+00
0.38797286E+00
0.22697157E+00
0.13447829E+00
0.83573088E-01
0.52656174E-01
0.32529123E-01
0.20275930E-01
0.12620603E-01
0.77133193E-02
0.47451751E-02
0.29437395E-02
0.17973217E-02
0.10914647E-02
0.66667714E-03
0.40506906E-03
0.24521077E-03
0.14975421E-03
0.90735419E-04
0.55180913E-04
0.33818706E-04
0.20568423E-04
0.12580312E-04
0.77193026E-05
0.47305275E-05
0.28804905E-05
0.17468101E-05
0.10576141E-05
0.64350115E-06
0.38905861E-06
0.23437546E-06
0.14120965E-06
0.84786045E-07
0.51662877E-07
0.31651986E-07
0.19434365E-07
0.12252587E-07
0.80529254E-08
0.54833360E-08
0.39100381E-08
0.29111229E-08
0.22376212E-08
0.17644338E-08
0.14050408E-08
0.11135626E-08
0.87015917E-09
0.66454597E-09
0.49379367E-09
0.35546027E-09
0.24710550E-09
0.16556721E-09
0.10826491E-09
0.72170679E-10
0.53358522E-10
0.48260018E-10
0.53190858E-10
0.64887547E-10
0.80706837E-10
0.98029231E-10
0.11505946E-09
0.12995763E-09
0.14217807E-09
0.15099753E-09
0.15603899E-09
0.15761177E-09
0.15592877E-09
0.15105522E-09
0.14380615E-09
0.13454000E-09
0.12383553E-09
0.11214252E-09
0.99914306E-10
0.87536686E-10
0.75498267E-10
0.64109218E-10
0.53612986E-10
0.44001785E-10
0.35462015E-10
0.28020333E-10
0.21647226E-10
0.16442845E-10
0.12268113E-10
0.90504479E-11
0.67496915E-11
0.52400384E-11
0.44183758E-11
0.41767323E-11
0.44152590E-11
0.50375580E-11
0.59479067E-11
