atomic number =   26
effective nuclear charge =   26
electron count =    4
net charge =   22
basis set = approximate basis set limit (UGBS)      
exchange correlation functional = PW91PW91            
cutoff radius (picometer) =  300
number of shells =   50
prepared by = Thomas A. Manz      
prepared date = May 2010            
net magnetization =    0
density in atomic units:
0.19900029E+04
0.17438934E+02
0.61362514E+01
0.13911513E+01
0.26513615E+00
0.40527679E-01
0.59156232E-02
0.97125035E-03
0.15065822E-03
0.24086658E-04
0.37186742E-05
0.49629790E-06
0.67527772E-07
0.77257365E-08
0.96751374E-09
0.21542970E-09
0.68737099E-10
0.66590705E-10
0.10256307E-09
0.11728850E-09
0.97814999E-10
0.60812015E-10
0.26995500E-10
0.67774926E-11
0.75684597E-12
0.40112744E-11
0.10308841E-10
0.15198729E-10
0.17025702E-10
0.15721294E-10
0.12406944E-10
0.83743984E-11
0.47465239E-11
0.20695958E-11
0.54601023E-12
0.48015774E-13
0.25218827E-12
0.84071834E-12
0.15400054E-11
0.21289856E-11
0.25012473E-11
0.26302641E-11
0.25320824E-11
0.22622908E-11
0.18846444E-11
0.14680024E-11
0.10598400E-11
0.69987099E-12
0.41134926E-12
0.20453906E-12
