atomic number =  103
effective nuclear charge =  103
electron count =   80
net charge =   23
basis set = approximate basis set limit (UGBS)      
exchange correlation functional = PW91PW91            
cutoff radius (picometer) =  300
number of shells =   50
prepared by = Thomas A. Manz      
prepared date = July 2010           
net magnetization =    0
density in atomic units:
0.16610686E+06
0.34888806E+03
0.12341441E+03
0.34140057E+02
0.14863981E+02
0.83796711E+01
0.43072124E+01
0.21336780E+01
0.10332329E+01
0.52488464E+00
0.27709258E+00
0.15280223E+00
0.91166019E-01
0.54885168E-01
0.33500753E-01
0.20357940E-01
0.12241445E-01
0.75153895E-02
0.45453082E-02
0.27358572E-02
0.16453632E-02
0.98619517E-03
0.59275917E-03
0.35569575E-03
0.21234099E-03
0.12626284E-03
0.75073440E-04
0.45151879E-04
0.26863643E-04
0.15903270E-04
0.94740244E-05
0.56310155E-05
0.33735291E-05
0.20237940E-05
0.12213625E-05
0.74939373E-06
0.46632789E-06
0.29321026E-06
0.18544965E-06
0.11946723E-06
0.78418239E-07
0.51688524E-07
0.34417027E-07
0.23063022E-07
0.15378140E-07
0.10187041E-07
0.66168311E-08
0.41801727E-08
0.25377942E-08
0.14650621E-08
