atomic number =   29
effective nuclear charge =   29
electron count =   28
net charge =    1
basis set = approximate basis set limit (UGBS)      
exchange correlation functional = PW91PW91            
cutoff radius (picometer) =  300
number of shells =   50
prepared by = Thomas A. Manz      
prepared date = July 2010           
net magnetization =    0
density in atomic units:
0.29900632E+04
0.88499710E+02
0.21969690E+02
0.90049372E+01
0.64698148E+01
0.45166202E+01
0.29018307E+01
0.18190393E+01
0.11062838E+01
0.67905182E+00
0.41673794E+00
0.25926653E+00
0.17062390E+00
0.11392987E+00
0.78190587E-01
0.54573227E-01
0.38658414E-01
0.28304772E-01
0.20880943E-01
0.15587854E-01
0.11773473E-01
0.89685600E-02
0.69033424E-02
0.53495932E-02
0.41648918E-02
0.32572676E-02
0.25627983E-02
0.20368577E-02
0.16172983E-02
0.12865913E-02
0.10292118E-02
0.82435447E-03
0.66352368E-03
0.53451536E-03
0.43158091E-03
0.35034493E-03
0.28548375E-03
0.23278635E-03
0.18960788E-03
0.15507835E-03
0.12731038E-03
0.10429054E-03
0.85715066E-04
0.70610120E-04
0.58150086E-04
0.48021288E-04
0.39643681E-04
0.32755190E-04
0.27085694E-04
0.22455970E-04
