atomic number =   41
effective nuclear charge =   41
electron count =   28
net charge =   13
basis set = approximate basis set limit (UGBS)      
exchange correlation functional = PW91PW91            
cutoff radius (picometer) =  300
number of shells =   50
prepared by = Thomas A. Manz      
prepared date = July 2010           
net magnetization =    0
density in atomic units:
0.90343223E+04
0.11333139E+03
0.38979561E+02
0.21589096E+02
0.98165054E+01
0.35988894E+01
0.12424663E+01
0.44630405E+00
0.15461144E+00
0.54355536E-01
0.18685792E-01
0.62696189E-02
0.22984792E-02
0.83947851E-03
0.31220174E-03
0.11578690E-03
0.41531064E-04
0.15558335E-04
0.56991375E-05
0.21160031E-05
0.81606083E-06
0.32798832E-06
0.13831875E-06
0.60005874E-07
0.26115444E-07
0.11238245E-07
0.47510542E-08
0.20225206E-08
0.86214169E-09
0.39910533E-09
0.22114499E-09
0.14441218E-09
0.10296011E-09
0.74079305E-10
0.52960223E-10
0.39177502E-10
0.31881546E-10
0.29737286E-10
0.31030616E-10
0.33833231E-10
0.36571815E-10
0.38263035E-10
0.38355898E-10
0.36807515E-10
0.33794297E-10
0.29820719E-10
0.25281496E-10
0.20654017E-10
0.16300086E-10
0.12526929E-10
