atomic number =   54
effective nuclear charge =   54
electron count =   30
net charge =   24
basis set = approximate basis set limit (UGBS)      
exchange correlation functional = PW91PW91            
cutoff radius (picometer) =  300
number of shells =   50
prepared by = Thomas A. Manz      
prepared date = July 2010           
net magnetization =    0
density in atomic units:
0.22048145E+05
0.15370833E+03
0.58944008E+02
0.16373396E+02
0.41643767E+01
0.13369014E+01
0.60862309E+00
0.30628482E+00
0.14466274E+00
0.65763444E-01
0.28172806E-01
0.11478242E-01
0.48650457E-02
0.19880864E-02
0.80637401E-03
0.32297237E-03
0.12635374E-03
0.51989209E-04
0.21062813E-04
0.85405272E-05
0.34733569E-05
0.13987710E-05
0.55874176E-06
0.21798647E-06
0.81692384E-07
0.29264895E-07
0.10046471E-07
0.34592964E-08
0.12301093E-08
0.53516641E-09
0.31861122E-09
0.22392982E-09
0.15925714E-09
0.10676023E-09
0.68227340E-10
0.45486767E-10
0.36316155E-10
0.36861500E-10
0.42858186E-10
0.50189668E-10
0.56003632E-10
0.58850397E-10
0.58117820E-10
0.54196356E-10
0.47864379E-10
0.40166065E-10
0.31974902E-10
0.24152963E-10
0.17281294E-10
0.11761979E-10
