atomic number =   71
effective nuclear charge =   71
electron count =   68
net charge =    3
basis set = approximate basis set limit (UGBS)      
exchange correlation functional = PW91PW91            
cutoff radius (picometer) =  300
number of shells =   50
prepared by = Thomas A. Manz      
prepared date = July 2010           
net magnetization =    0
density in atomic units:
0.53492477E+05
0.24866240E+03
0.59159531E+02
0.32055058E+02
0.19558529E+02
0.94154158E+01
0.44985819E+01
0.24881191E+01
0.15348104E+01
0.10358968E+01
0.71531039E+00
0.49393862E+00
0.34799251E+00
0.24125914E+00
0.16669777E+00
0.11380354E+00
0.76830387E-01
0.52640140E-01
0.35681371E-01
0.24145789E-01
0.16375115E-01
0.11112920E-01
0.75842203E-02
0.51895366E-02
0.35515483E-02
0.24348299E-02
0.16764925E-02
0.11689226E-02
0.81186660E-03
0.56387443E-03
0.39451476E-03
0.27615513E-03
0.19458747E-03
0.13722261E-03
0.97055708E-04
0.69278241E-04
0.49761900E-04
0.35827779E-04
0.25780637E-04
0.18703511E-04
0.13679476E-04
0.99901972E-05
0.73467063E-05
0.54339839E-05
0.40236123E-05
0.29968755E-05
0.22344198E-05
0.16706208E-05
0.12520693E-05
0.94365004E-06
