atomic number =   29
effective nuclear charge =   29
electron count =   10
net charge =   19
basis set = approximate basis set limit (UGBS)      
exchange correlation functional = PW91PW91            
cutoff radius (picometer) =  300
number of shells =   50
prepared by = Thomas A. Manz      
prepared date = July 2010           
net magnetization =    0
density in atomic units:
0.29352397E+04
0.80344276E+02
0.17575371E+02
0.28339555E+01
0.41696373E+00
0.49793396E-01
0.58312621E-02
0.79626322E-03
0.10047158E-03
0.13404042E-04
0.19161464E-05
0.25918459E-06
0.34196781E-07
0.33471965E-08
0.10177026E-08
0.67334210E-09
0.22573468E-09
0.72094289E-10
0.15597226E-09
0.26983366E-09
0.29321118E-09
0.22989913E-09
0.13649631E-09
0.59879421E-10
0.19414401E-10
0.11836333E-10
0.22499986E-10
0.36708785E-10
0.46144262E-10
0.47438328E-10
0.41674567E-10
0.31871842E-10
0.21352212E-10
0.12269995E-10
0.59148290E-11
0.25311617E-11
0.15410450E-11
0.21739659E-11
0.36547904E-11
0.52713281E-11
0.65655020E-11
0.73220813E-11
0.74625315E-11
0.70581466E-11
0.62478174E-11
0.52078823E-11
0.40782399E-11
0.29930641E-11
0.20451826E-11
0.12931587E-11
