atomic number =   33
effective nuclear charge =   33
electron count =   18
net charge =   15
basis set = approximate basis set limit (UGBS)      
exchange correlation functional = PW91PW91            
cutoff radius (picometer) =  300
number of shells =   50
prepared by = Thomas A. Manz      
prepared date = July 2010           
net magnetization =    0
density in atomic units:
0.45033628E+04
0.91454254E+02
0.15697005E+02
0.69719887E+01
0.48464937E+01
0.27681549E+01
0.13938928E+01
0.68198502E+00
0.31485394E+00
0.14354707E+00
0.63238516E-01
0.27150383E-01
0.12320117E-01
0.54829423E-02
0.24492734E-02
0.10871366E-02
0.47504896E-03
0.21751832E-03
0.98570817E-04
0.44891091E-04
0.20601739E-04
0.94356828E-05
0.43284558E-05
0.19684858E-05
0.87954271E-06
0.38678527E-06
0.16827342E-06
0.74060274E-07
0.31896217E-07
0.13574498E-07
0.58337930E-08
0.25064308E-08
0.11026567E-08
0.49907550E-09
0.23994418E-09
0.12956639E-09
0.81419503E-10
0.60257604E-10
0.51033695E-10
0.47091945E-10
0.44986237E-10
0.42965253E-10
0.40391478E-10
0.36918968E-10
0.32598368E-10
0.27737954E-10
0.22595750E-10
0.17562523E-10
0.12940271E-10
0.89915887E-11
