atomic number =   70
effective nuclear charge =   70
electron count =   48
net charge =   22
basis set = approximate basis set limit (UGBS)      
exchange correlation functional = PW91PW91            
cutoff radius (picometer) =  300
number of shells =   50
prepared by = Thomas A. Manz      
prepared date = July 2010           
net magnetization =    0
density in atomic units:
0.51108629E+05
0.23655879E+03
0.47670471E+02
0.21372972E+02
0.13291952E+02
0.61631308E+01
0.25514269E+01
0.11275762E+01
0.53652722E+00
0.29044905E+00
0.16994646E+00
0.10394681E+00
0.67095093E-01
0.42994373E-01
0.27552195E-01
0.17418038E-01
0.10838438E-01
0.68477723E-02
0.42561330E-02
0.26308107E-02
0.16250518E-02
0.10014391E-02
0.61950844E-03
0.38317620E-03
0.23615235E-03
0.14518559E-03
0.89331159E-04
0.55578545E-04
0.34225228E-04
0.20955467E-04
0.12886228E-04
0.78838775E-05
0.48403667E-05
0.29595458E-05
0.18069218E-05
0.11113920E-05
0.68640907E-06
0.42317453E-06
0.25918362E-06
0.15977605E-06
0.99148117E-07
0.61076392E-07
0.37845588E-07
0.23578469E-07
0.14660408E-07
0.91600265E-08
0.57337304E-08
0.35929666E-08
0.22652333E-08
0.14429140E-08
