atomic number =   46
effective nuclear charge =   46
electron count =   12
net charge =   34
basis set = approximate basis set limit (UGBS)      
exchange correlation functional = PW91PW91            
cutoff radius (picometer) =  300
number of shells =   50
prepared by = Thomas A. Manz      
prepared date = July 2010           
net magnetization =    0
density in atomic units:
0.13027927E+05
0.73173645E+02
0.81307774E+01
0.30223980E+01
0.97466773E+00
0.23103172E+00
0.48656188E-01
0.10758055E-01
0.22038312E-02
0.44502027E-03
0.84229556E-04
0.14547622E-04
0.28860948E-05
0.59991947E-06
0.14076534E-06
0.35556717E-07
0.78121554E-08
0.13949020E-08
0.42950662E-09
0.65864630E-09
0.75623902E-09
0.57926131E-09
0.31064251E-09
0.10435913E-09
0.13286344E-10
0.16613239E-10
0.63541915E-10
0.10985213E-09
0.13455045E-09
0.13213111E-09
0.10957647E-09
0.77657991E-10
0.46651034E-10
0.22259391E-10
0.71674689E-11
0.98379161E-12
0.12763089E-11
0.54196842E-11
0.11039562E-10
0.16125748E-10
0.19620326E-10
0.21172793E-10
0.20793915E-10
0.18899316E-10
0.16001464E-10
0.12670490E-10
0.93103485E-11
0.62873465E-11
0.38123103E-11
0.19938435E-11
