atomic number =   36
effective nuclear charge =   36
electron count =   30
net charge =    6
basis set = approximate basis set limit (UGBS)      
exchange correlation functional = PW91PW91            
cutoff radius (picometer) =  300
number of shells =   50
prepared by = Thomas A. Manz      
prepared date = July 2010           
net magnetization =    0
density in atomic units:
0.59621792E+04
0.10490437E+03
0.28744637E+02
0.17598690E+02
0.10380354E+02
0.50495644E+01
0.23255177E+01
0.11243714E+01
0.56169397E+00
0.30921975E+00
0.18546575E+00
0.12052307E+00
0.85219122E-01
0.61509077E-01
0.45091607E-01
0.32988470E-01
0.23983503E-01
0.17633397E-01
0.12822736E-01
0.92833918E-02
0.67079901E-02
0.48308135E-02
0.34819022E-02
0.25042023E-02
0.17941289E-02
0.12817810E-02
0.91592828E-03
0.65936975E-03
0.47145301E-03
0.33619866E-03
0.24069291E-03
0.17195372E-03
0.12328719E-03
0.88192784E-04
0.63080712E-04
0.45356599E-04
0.32692151E-04
0.23522955E-04
0.16840862E-04
0.12106740E-04
0.87331600E-05
0.62636323E-05
0.45081197E-05
0.32521546E-05
0.23409223E-05
0.16907975E-05
0.12193257E-05
0.87973973E-06
0.63521622E-06
0.46039153E-06
