atomic number =   68
effective nuclear charge =   68
electron count =   28
net charge =   40
basis set = approximate basis set limit (UGBS)      
exchange correlation functional = PW91PW91            
cutoff radius (picometer) =  300
number of shells =   50
prepared by = Thomas A. Manz      
prepared date = July 2010           
net magnetization =    0
density in atomic units:
0.46198621E+05
0.20983383E+03
0.44244148E+02
0.51569910E+01
0.49195921E+00
0.34844730E-01
0.23523157E-02
0.22163178E-03
0.19215979E-04
0.14201772E-05
0.14186948E-06
0.15457230E-07
0.11129427E-07
0.28682791E-07
0.28477231E-07
0.15201950E-07
0.44341877E-08
0.15591197E-08
0.30084875E-08
0.47631041E-08
0.49306537E-08
0.37311580E-08
0.21480910E-08
0.92222335E-09
0.31833861E-09
0.24223204E-09
0.43671802E-09
0.66359873E-09
0.79755957E-09
0.79481155E-09
0.68171263E-09
0.51040777E-09
0.33541253E-09
0.18966675E-09
0.91384386E-10
0.42081571E-10
0.30719670E-10
0.44008505E-10
0.69171648E-10
0.94864061E-10
0.11422059E-09
0.12431432E-09
0.12426155E-09
0.11568007E-09
0.10098587E-09
0.83104759E-10
0.64282156E-10
0.46637676E-10
0.31527350E-10
0.19786377E-10
