atomic number =   41
effective nuclear charge =   41
electron count =   30
net charge =   11
basis set = approximate basis set limit (UGBS)      
exchange correlation functional = PW91PW91            
cutoff radius (picometer) =  300
number of shells =   50
prepared by = Thomas A. Manz      
prepared date = July 2010           
net magnetization =    0
density in atomic units:
0.90601729E+04
0.11357996E+03
0.39460148E+02
0.21819550E+02
0.98328829E+01
0.36617198E+01
0.14028676E+01
0.64742351E+00
0.34639207E+00
0.21172573E+00
0.13490075E+00
0.86171664E-01
0.56274254E-01
0.35895590E-01
0.22696888E-01
0.14088667E-01
0.85815713E-02
0.53058323E-02
0.32231067E-02
0.19467968E-02
0.11755335E-02
0.70862722E-03
0.42933034E-03
0.26034133E-03
0.15746387E-03
0.95083305E-04
0.57494810E-04
0.35179775E-04
0.21292497E-04
0.12802003E-04
0.77200157E-05
0.46219652E-05
0.27696351E-05
0.16471853E-05
0.97431109E-06
0.57838525E-06
0.34320121E-06
0.20224833E-06
0.11767452E-06
0.68582878E-07
0.40069306E-07
0.23108864E-07
0.13364792E-07
0.77587616E-08
0.44978203E-08
0.26343210E-08
0.15602465E-08
0.94223107E-09
0.58612681E-09
0.38092268E-09
