atomic number =   87
effective nuclear charge =   87
electron count =   60
net charge =   27
basis set = approximate basis set limit (UGBS)      
exchange correlation functional = PW91PW91            
cutoff radius (picometer) =  300
number of shells =   50
prepared by = Thomas A. Manz      
prepared date = July 2010           
net magnetization =    0
density in atomic units:
0.10114344E+06
0.29125183E+03
0.91530525E+02
0.44138676E+02
0.15352408E+02
0.41296787E+01
0.10808674E+01
0.31194296E+00
0.88554457E-01
0.26496224E-01
0.79905950E-02
0.23417289E-02
0.74563519E-03
0.23566977E-03
0.77885059E-04
0.26819027E-04
0.91998909E-05
0.33236215E-05
0.11483670E-05
0.38667005E-06
0.12960609E-06
0.43225931E-07
0.13987411E-07
0.38692716E-08
0.78970985E-09
0.51174043E-09
0.11659614E-08
0.18439832E-08
0.22031874E-08
0.21659086E-08
0.18370397E-08
0.13692748E-08
0.90799651E-09
0.53438465E-09
0.28886046E-09
0.16939877E-09
0.14424636E-09
0.17787116E-09
0.23771166E-09
0.29590494E-09
0.33640246E-09
0.35273059E-09
0.34419828E-09
0.31528624E-09
0.27254493E-09
0.22329272E-09
0.17315527E-09
0.12708914E-09
0.88248540E-10
0.58467453E-10
