atomic number =   34
effective nuclear charge =   34
electron count =   28
net charge =    6
basis set = approximate basis set limit (UGBS)      
exchange correlation functional = PW91PW91            
cutoff radius (picometer) =  300
number of shells =   50
prepared by = Thomas A. Manz      
prepared date = July 2010           
net magnetization =    0
density in atomic units:
0.49565190E+04
0.10109158E+03
0.25538773E+02
0.14963534E+02
0.97123270E+01
0.53017497E+01
0.26908393E+01
0.13749881E+01
0.68412381E+00
0.34517658E+00
0.17279088E+00
0.86601354E-01
0.46268314E-01
0.24748916E-01
0.13482001E-01
0.73789875E-02
0.40351283E-02
0.22944871E-02
0.12999532E-02
0.74121112E-03
0.42599379E-03
0.24538464E-03
0.14234537E-03
0.82729603E-04
0.48022135E-04
0.27923126E-04
0.16345295E-04
0.97555467E-05
0.57997172E-05
0.34500608E-05
0.20719856E-05
0.12414550E-05
0.74698420E-06
0.44694579E-06
0.26625949E-06
0.15927561E-06
0.95313482E-07
0.56760712E-07
0.33493556E-07
0.19902112E-07
0.11938028E-07
0.71383854E-08
0.43239581E-08
0.26542804E-08
0.16419016E-08
0.10305420E-08
0.65219563E-09
0.41577919E-09
0.26656749E-09
0.17187814E-09
