atomic number =  109
effective nuclear charge =  109
electron count =   28
net charge =   81
basis set = approximate basis set limit (UGBS)      
exchange correlation functional = PW91PW91            
cutoff radius (picometer) =  300
number of shells =   50
prepared by = Thomas A. Manz      
prepared date = July 2010           
net magnetization =    0
density in atomic units:
0.19083272E+06
0.15421681E+03
0.24397609E+01
0.21596240E-01
0.21549080E-03
0.55068845E-05
0.36821839E-05
0.18864361E-05
0.16193380E-06
0.65472489E-06
0.43523121E-06
0.55808808E-07
0.32998145E-07
0.10529497E-06
0.10191690E-06
0.48349200E-07
0.89215275E-08
0.17017915E-08
0.10038603E-07
0.17557054E-07
0.17801966E-07
0.12667700E-07
0.64736834E-08
0.20692434E-08
0.24523472E-09
0.40734419E-09
0.14399332E-08
0.24175821E-08
0.29179728E-08
0.28401561E-08
0.23416966E-08
0.16534504E-08
0.99093700E-09
0.47265136E-09
0.15348506E-09
0.23533554E-10
0.30537812E-10
0.11866719E-09
0.23758068E-09
0.34510889E-09
0.41874251E-09
0.45121970E-09
0.44286558E-09
0.40243545E-09
0.34081810E-09
0.27006691E-09
0.19877709E-09
0.13455104E-09
0.81938581E-10
0.43245844E-10
