atomic number =  109
effective nuclear charge =  109
electron count =   18
net charge =   91
basis set = approximate basis set limit (UGBS)      
exchange correlation functional = PW91PW91            
cutoff radius (picometer) =  300
number of shells =   50
prepared by = Thomas A. Manz      
prepared date = July 2010           
net magnetization =    0
density in atomic units:
0.19019402E+06
0.80502869E+02
0.11360745E+01
0.78724707E-02
0.60679042E-04
0.49139189E-05
0.36731747E-05
0.18810323E-05
0.16021920E-06
0.65464144E-06
0.43480267E-06
0.55302170E-07
0.32788588E-07
0.10527312E-06
0.10189710E-06
0.48280000E-07
0.88441681E-08
0.16518169E-08
0.10019845E-07
0.17554726E-07
0.17800843E-07
0.12661793E-07
0.64632935E-08
0.20577680E-08
0.23569971E-09
0.40118003E-09
0.14369533E-08
0.24167066E-08
0.29178795E-08
0.28400304E-08
0.23411402E-08
0.16523332E-08
0.98945907E-09
0.47100707E-09
0.15194808E-09
0.22251345E-10
0.29580859E-10
0.11803528E-09
0.23727550E-09
0.34498032E-09
0.41870044E-09
0.45121634E-09
0.44285445E-09
0.40238857E-09
0.34071698E-09
0.26992628E-09
0.19859729E-09
0.13434569E-09
0.81722108E-10
0.43032609E-10
