atomic number =   97
effective nuclear charge =   97
electron count =   30
net charge =   67
basis set = approximate basis set limit (UGBS)      
exchange correlation functional = PW91PW91            
cutoff radius (picometer) =  300
number of shells =   50
prepared by = Thomas A. Manz      
prepared date = July 2010           
net magnetization =    0
density in atomic units:
0.13953341E+06
0.20646547E+03
0.14921132E+02
0.24956708E+01
0.36862242E+00
0.36405738E-01
0.30699507E-02
0.28291121E-03
0.23105014E-04
0.28152408E-05
0.64618706E-06
0.89142453E-07
0.23038741E-07
0.69330923E-07
0.71444255E-07
0.36120653E-07
0.79439300E-08
0.17057278E-08
0.68842620E-08
0.12119037E-07
0.12526467E-07
0.91304484E-08
0.48455076E-08
0.16992751E-08
0.31580782E-09
0.33699551E-09
0.10079108E-08
0.16790864E-08
0.20403017E-08
0.20058863E-08
0.16744258E-08
0.12019132E-08
0.73856782E-09
0.36947062E-09
0.13631028E-09
0.35213530E-10
0.31527485E-10
0.87065952E-10
0.16683503E-09
0.24096761E-09
0.29304381E-09
0.31728109E-09
0.31314895E-09
0.28650771E-09
0.24454122E-09
0.19566991E-09
0.14584074E-09
0.10049667E-09
0.62919711E-10
0.34876969E-10
