atomic number =    7
effective nuclear charge =    7
electron count =    4
net charge =    3
basis set = approximate basis set limit (UGBS)      
exchange correlation functional = PW91PW91            
cutoff radius (picometer) =  300
number of shells =   50
prepared by = Thomas A. Manz      
prepared date = July 2010           
net magnetization =    0
density in atomic units:
0.74634926E+02
0.16134527E+02
0.39162040E+01
0.10173204E+01
0.37506294E+00
0.23002534E+00
0.19041502E+00
0.16325513E+00
0.13478370E+00
0.10787839E+00
0.83329424E-01
0.62799722E-01
0.47572467E-01
0.35455268E-01
0.26345022E-01
0.19393383E-01
0.14165801E-01
0.10474386E-01
0.76801796E-02
0.56238663E-02
0.41231401E-02
0.30224347E-02
0.22237641E-02
0.16372860E-02
0.12041515E-02
0.88532438E-03
0.65242196E-03
0.48500017E-03
0.35887022E-03
0.26528159E-03
0.19701821E-03
0.14620030E-03
0.10890381E-03
0.81031962E-04
0.60309470E-04
0.45108558E-04
0.33824927E-04
0.25328798E-04
0.18883209E-04
0.14125007E-04
0.10597414E-04
0.79066813E-05
0.59146914E-05
0.44300318E-05
0.33090348E-05
0.24765422E-05
0.18480814E-05
0.13778402E-05
0.10260181E-05
0.76499890E-06
