atomic number =   70
effective nuclear charge =   70
electron count =    2
net charge =   68
basis set = approximate basis set limit (UGBS)      
exchange correlation functional = PW91PW91            
cutoff radius (picometer) =  300
number of shells =   50
prepared by = Thomas A. Manz      
prepared date = July 2010           
net magnetization =    0
density in atomic units:
0.42954215E+05
0.11265735E-03
0.22566674E-04
0.73673123E-05
0.16650091E-05
0.44566710E-06
0.31850968E-06
0.16810866E-06
0.12644613E-07
0.57121138E-07
0.38202202E-07
0.46494808E-08
0.26986120E-08
0.91489882E-08
0.88764258E-08
0.41736716E-08
0.72856293E-09
0.11651577E-09
0.86158014E-09
0.15240753E-08
0.15437401E-08
0.10930038E-08
0.55233262E-09
0.17051956E-09
0.14911222E-10
0.32067019E-10
0.12385942E-09
0.20962294E-09
0.25296709E-09
0.24564442E-09
0.20179684E-09
0.14168453E-09
0.84118643E-10
0.39354270E-10
0.12028178E-10
0.11638031E-11
0.21379135E-11
0.10059460E-10
0.20548374E-10
0.29942153E-10
0.36317001E-10
0.39077373E-10
0.38267167E-10
0.34691722E-10
0.29293401E-10
0.23124815E-10
0.16934142E-10
0.11381230E-10
0.68498614E-11
0.35350362E-11
