atomic number =   63
effective nuclear charge =   63
electron count =   46
net charge =   17
basis set = approximate basis set limit (UGBS)      
exchange correlation functional = PW91PW91            
cutoff radius (picometer) =  300
number of shells =   50
prepared by = Thomas A. Manz      
prepared date = July 2010           
net magnetization =    0
density in atomic units:
0.36351086E+05
0.21172124E+03
0.54121353E+02
0.17052370E+02
0.11697439E+02
0.70662169E+01
0.35528979E+01
0.16823343E+01
0.74302769E+00
0.32329795E+00
0.13583797E+00
0.55789977E-01
0.24517145E-01
0.10661943E-01
0.46785586E-02
0.20385939E-02
0.86987863E-03
0.38801198E-03
0.17127879E-03
0.76449891E-04
0.34745899E-04
0.15939757E-04
0.73921924E-05
0.34178772E-05
0.15555274E-05
0.69569370E-06
0.30672044E-06
0.13637872E-06
0.59213427E-07
0.25436789E-07
0.11103004E-07
0.48795878E-08
0.21956825E-08
0.99963382E-09
0.46229548E-09
0.22606780E-09
0.12662921E-09
0.91720610E-10
0.86671684E-10
0.92933515E-10
0.10045702E-09
0.10452429E-09
0.10344552E-09
0.97272961E-10
0.87078372E-10
0.74532304E-10
0.60966239E-10
0.47758877E-10
0.35886700E-10
0.26063332E-10
