atomic number =  102
effective nuclear charge =  102
electron count =   28
net charge =   74
basis set = approximate basis set limit (UGBS)      
exchange correlation functional = PW91PW91            
cutoff radius (picometer) =  300
number of shells =   50
prepared by = Thomas A. Manz      
prepared date = July 2010           
net magnetization =    0
density in atomic units:
0.15941092E+06
0.18274022E+03
0.45944381E+01
0.63630171E-01
0.84979733E-03
0.12109395E-04
0.29007078E-05
0.14023448E-05
0.12845545E-06
0.48541438E-06
0.32411424E-06
0.43207649E-07
0.24953644E-07
0.78023376E-07
0.75762024E-07
0.36231569E-07
0.69066872E-08
0.13728320E-08
0.74423574E-08
0.13006813E-07
0.13225565E-07
0.94512664E-08
0.48649516E-08
0.15850080E-08
0.21008438E-09
0.31119854E-09
0.10662106E-08
0.17888553E-08
0.21629851E-08
0.21099782E-08
0.17445264E-08
0.12362080E-08
0.74480078E-09
0.35896014E-09
0.11992875E-09
0.21167275E-10
0.24359131E-10
0.88305016E-10
0.17569199E-09
0.25522462E-09
0.31001224E-09
0.33456465E-09
0.32891512E-09
0.29933681E-09
0.25405505E-09
0.20175851E-09
0.14889454E-09
0.10119176E-09
0.61992786E-10
0.33076233E-10
