atomic number =   41
effective nuclear charge =   41
electron count =    4
net charge =   37
basis set = approximate basis set limit (UGBS)      
exchange correlation functional = PW91PW91            
cutoff radius (picometer) =  300
number of shells =   50
prepared by = Thomas A. Manz      
prepared date = July 2010           
net magnetization =    0
density in atomic units:
0.85515146E+04
0.24429493E+02
0.18976645E+01
0.93797132E-01
0.44464655E-02
0.14938074E-03
0.42051997E-05
0.20441691E-06
0.15949452E-07
0.99865396E-08
0.51617461E-08
0.55092114E-09
0.47990678E-09
0.13721909E-08
0.12626521E-08
0.57007105E-09
0.92276284E-10
0.21761157E-10
0.13544040E-09
0.22848162E-09
0.22633372E-09
0.15762409E-09
0.78227369E-10
0.23394016E-10
0.19089856E-11
0.53428134E-11
0.19174100E-10
0.31708094E-10
0.37806605E-10
0.36417178E-10
0.29727849E-10
0.20744143E-10
0.12225604E-10
0.56565447E-11
0.16890102E-11
0.15334164E-12
0.35316937E-12
0.15610580E-11
0.31294010E-11
0.45199886E-11
0.54535942E-11
0.58467801E-11
0.57085092E-11
0.51626537E-11
0.43498287E-11
0.34264685E-11
0.25036748E-11
0.16777301E-11
0.10057827E-11
0.51595842E-12
