atomic number =   35
effective nuclear charge =   35
electron count =   10
net charge =   25
basis set = approximate basis set limit (UGBS)      
exchange correlation functional = PW91PW91            
cutoff radius (picometer) =  300
number of shells =   50
prepared by = Thomas A. Manz      
prepared date = July 2010           
net magnetization =    0
density in atomic units:
0.53257915E+04
0.87574036E+02
0.10904831E+02
0.99383533E+00
0.85511774E-01
0.57034884E-02
0.37256462E-03
0.32464177E-04
0.24713690E-05
0.15746011E-06
0.99126263E-08
0.68851930E-09
0.26224470E-09
0.88143287E-09
0.96433073E-09
0.54991356E-09
0.16342917E-09
0.34876657E-10
0.70363652E-10
0.13571036E-09
0.15522779E-09
0.12603356E-09
0.77326194E-10
0.35181545E-10
0.11429909E-10
0.54993280E-11
0.10149583E-10
0.17554128E-10
0.23013928E-10
0.24404676E-10
0.22012352E-10
0.17279738E-10
0.11919791E-10
0.71076920E-11
0.35928539E-11
0.15854771E-11
0.84420405E-12
0.99984571E-12
0.16635705E-11
0.24655033E-11
0.31519665E-11
0.35952792E-11
0.37346124E-11
0.35944578E-11
0.32362637E-11
0.27445257E-11
0.21899895E-11
0.16426349E-11
0.11523171E-11
0.75294518E-12
