atomic number =   75
effective nuclear charge =   75
electron count =   68
net charge =    7
basis set = approximate basis set limit (UGBS)      
exchange correlation functional = PW91PW91            
cutoff radius (picometer) =  300
number of shells =   50
prepared by = Thomas A. Manz      
prepared date = July 2010           
net magnetization =    0
density in atomic units:
0.63734430E+05
0.26238489E+03
0.64971573E+02
0.37963406E+02
0.20273537E+02
0.87515421E+01
0.40570335E+01
0.22826619E+01
0.14171078E+01
0.92988431E+00
0.60510111E+00
0.38573861E+00
0.24979332E+00
0.15812902E+00
0.99633813E-01
0.61955716E-01
0.38011353E-01
0.23772487E-01
0.14665812E-01
0.90206377E-02
0.55557094E-02
0.34194086E-02
0.21164427E-02
0.13123880E-02
0.81297301E-03
0.50376874E-03
0.31330955E-03
0.19748078E-03
0.12349345E-03
0.76921984E-04
0.48145095E-04
0.29993447E-04
0.18741404E-04
0.11655487E-04
0.72330827E-05
0.45184152E-05
0.28323500E-05
0.17724180E-05
0.11025604E-05
0.69083387E-06
0.43607184E-06
0.27360124E-06
0.17272244E-06
0.10957464E-06
0.69329964E-07
0.44038202E-07
0.27876826E-07
0.17617491E-07
0.11113658E-07
0.70300317E-08
