atomic number =  107
effective nuclear charge =  107
electron count =   80
net charge =   27
basis set = approximate basis set limit (UGBS)      
exchange correlation functional = PW91PW91            
cutoff radius (picometer) =  400
number of shells =   75
prepared by = Thomas A. Manz      
prepared date = July 2010           
net magnetization =    0
density in atomic units:
0.18434130E+06
0.46770114E+03
0.18023624E+03
0.56484818E+02
0.21721828E+02
0.12511557E+02
0.70555987E+01
0.35430901E+01
0.16983017E+01
0.84939152E+00
0.45348713E+00
0.25468713E+00
0.14737403E+00
0.87952852E-01
0.53097319E-01
0.32057416E-01
0.19178968E-01
0.11432252E-01
0.68326737E-02
0.40898565E-02
0.24407494E-02
0.14501502E-02
0.85237698E-03
0.50189969E-03
0.29554943E-03
0.17391136E-03
0.10246714E-03
0.60685048E-04
0.35540448E-04
0.20817095E-04
0.12418562E-04
0.73965589E-05
0.43456407E-05
0.25374334E-05
0.14996134E-05
0.88465765E-06
0.51517554E-06
0.30105124E-06
0.17702547E-06
0.10319510E-06
0.59816081E-07
0.35228307E-07
0.21082833E-07
0.12868724E-07
0.81605691E-08
0.54228937E-08
0.38008836E-08
0.27924825E-08
0.21213120E-08
0.16490037E-08
0.12889758E-08
0.10005793E-08
0.76043621E-09
0.56228205E-09
0.40349502E-09
0.27735758E-09
0.18220507E-09
0.11622819E-09
0.75045942E-10
0.53845498E-10
0.48330787E-10
0.54181735E-10
0.67421894E-10
0.84728190E-10
0.10324095E-09
0.12075581E-09
0.13556653E-09
0.14700072E-09
0.15428325E-09
0.15743871E-09
0.15673771E-09
0.15232585E-09
0.14513958E-09
0.13547781E-09
0.12410278E-09
