atomic number =   24
effective nuclear charge =   24
electron count =   18
net charge =    6
basis set = approximate basis set limit (UGBS)      
exchange correlation functional = PW91PW91            
cutoff radius (picometer) =  300
number of shells =   50
prepared by = Thomas A. Manz      
prepared date = July 2010           
net magnetization =    0
density in atomic units:
0.16607734E+04
0.68446960E+02
0.22062252E+02
0.59793315E+01
0.25463548E+01
0.18361877E+01
0.14491075E+01
0.10735885E+01
0.73583043E+00
0.48392713E+00
0.30431274E+00
0.18583743E+00
0.11586211E+00
0.70905805E-01
0.43444354E-01
0.26426507E-01
0.15941519E-01
0.98587740E-02
0.60356716E-02
0.36953553E-02
0.22703395E-02
0.13961825E-02
0.86434797E-03
0.53648389E-03
0.33274811E-03
0.20646186E-03
0.12855661E-03
0.81101731E-04
0.50743078E-04
0.31612268E-04
0.19782463E-04
0.12319520E-04
0.76929509E-05
0.47809758E-05
0.29648045E-05
0.18506905E-05
0.11593321E-05
0.72494367E-06
0.45059744E-06
0.28206188E-06
0.17784956E-06
0.11143218E-06
0.70246735E-07
0.44498734E-07
0.28119006E-07
0.17855250E-07
0.11306726E-07
0.71617672E-08
0.45393245E-08
0.28919553E-08
