atomic number =   51
effective nuclear charge =   51
electron count =   28
net charge =   23
basis set = approximate basis set limit (UGBS)      
exchange correlation functional = PW91PW91            
cutoff radius (picometer) =  300
number of shells =   50
prepared by = Thomas A. Manz      
prepared date = July 2010           
net magnetization =    0
density in atomic units:
0.18247650E+05
0.14054686E+03
0.56658127E+02
0.18832367E+02
0.48290405E+01
0.97099590E+00
0.18594672E+00
0.39015617E-01
0.77177938E-02
0.15812167E-02
0.32423003E-03
0.62382031E-04
0.12967168E-04
0.25380134E-05
0.51058987E-06
0.11439872E-06
0.27548015E-07
0.80313116E-08
0.31392353E-08
0.21015663E-08
0.17063985E-08
0.12253469E-08
0.70776018E-09
0.30706718E-09
0.94401688E-10
0.48196922E-10
0.96275612E-10
0.16633572E-09
0.21649224E-09
0.22839583E-09
0.20542106E-09
0.16111584E-09
0.11123194E-09
0.66492936E-10
0.33749087E-10
0.14929212E-10
0.78211630E-11
0.90550883E-11
0.15071494E-10
0.22461422E-10
0.28870517E-10
0.33106091E-10
0.34570284E-10
0.33437055E-10
0.30262882E-10
0.25808290E-10
0.20727800E-10
0.15674601E-10
0.11102480E-10
0.73442901E-11
