atomic number =   29
effective nuclear charge =   29
electron count =    2
net charge =   27
basis set = approximate basis set limit (UGBS)      
exchange correlation functional = PW91PW91            
cutoff radius (picometer) =  300
number of shells =   50
prepared by = Thomas A. Manz      
prepared date = July 2010           
net magnetization =    0
density in atomic units:
0.25427808E+04
0.12823335E+01
0.35718533E-02
0.11847712E-04
0.61381940E-07
0.14095892E-07
0.15236354E-07
0.68230412E-08
0.64682282E-09
0.27558948E-08
0.17058346E-08
0.18415142E-09
0.14757975E-09
0.45104942E-09
0.42138493E-09
0.19195986E-09
0.31306274E-10
0.65441016E-11
0.44093180E-10
0.75398826E-10
0.75115872E-10
0.52514552E-10
0.26158407E-10
0.78640462E-11
0.63532117E-12
0.17153958E-11
0.62893267E-11
0.10460520E-10
0.12507445E-10
0.12069674E-10
0.98659908E-11
0.68926423E-11
0.40683910E-11
0.18858155E-11
0.56514152E-12
0.51257284E-13
0.11413272E-12
0.51274295E-12
0.10320982E-11
0.14934882E-11
0.18039560E-11
0.19350639E-11
0.18908178E-11
0.17107627E-11
0.14419544E-11
0.11364469E-11
0.83060902E-12
0.55693232E-12
0.33410696E-12
0.17160584E-12
