atomic number =  103
effective nuclear charge =  103
electron count =   28
net charge =   75
basis set = approximate basis set limit (UGBS)      
exchange correlation functional = PW91PW91            
cutoff radius (picometer) =  300
number of shells =   50
prepared by = Thomas A. Manz      
prepared date = July 2010           
net magnetization =    0
density in atomic units:
0.16377753E+06
0.17881520E+03
0.42084255E+01
0.54690864E-01
0.69394411E-03
0.99542840E-05
0.29860389E-05
0.14612037E-05
0.13113956E-06
0.50815606E-06
0.33812557E-06
0.44211660E-07
0.25904912E-07
0.81698943E-07
0.79187245E-07
0.37717534E-07
0.70729138E-08
0.13750950E-08
0.77875209E-08
0.13619119E-07
0.13831755E-07
0.98644986E-08
0.50604352E-08
0.16331676E-08
0.20452924E-09
0.31981676E-09
0.11157995E-08
0.18740025E-08
0.22643176E-08
0.22069555E-08
0.18226332E-08
0.12893275E-08
0.77491613E-09
0.37161346E-09
0.12242150E-09
0.20126626E-10
0.24423311E-10
0.92057133E-10
0.18399866E-09
0.26742838E-09
0.32473721E-09
0.35021769E-09
0.34401451E-09
0.31294306E-09
0.26535518E-09
0.21054920E-09
0.15518872E-09
0.10527573E-09
0.64320181E-10
0.34132721E-10
