atomic number =   69
effective nuclear charge =   69
electron count =   28
net charge =   41
basis set = approximate basis set limit (UGBS)      
exchange correlation functional = PW91PW91            
cutoff radius (picometer) =  300
number of shells =   50
prepared by = Thomas A. Manz      
prepared date = July 2010           
net magnetization =    0
density in atomic units:
0.48415621E+05
0.21300858E+03
0.42498032E+02
0.46531992E+01
0.41934723E+00
0.28028186E-01
0.17778737E-02
0.16115136E-03
0.13680055E-04
0.10176038E-05
0.12925767E-06
0.18178651E-07
0.11921487E-07
0.29467438E-07
0.29340452E-07
0.15718172E-07
0.46092996E-08
0.16325691E-08
0.31255696E-08
0.49334270E-08
0.50992561E-08
0.38528114E-08
0.22137716E-08
0.94775576E-09
0.32678374E-09
0.25149868E-09
0.45442988E-09
0.68918715E-09
0.82658308E-09
0.82218143E-09
0.70379119E-09
0.52585519E-09
0.34463954E-09
0.19416604E-09
0.93122489E-10
0.42782927E-10
0.31607876E-10
0.45764979E-10
0.72005797E-10
0.98619661E-10
0.11855371E-09
0.12880788E-09
0.12857233E-09
0.11951307E-09
0.10418034E-09
0.85582465E-10
0.66076492E-10
0.47836179E-10
0.32244124E-10
0.20168959E-10
