atomic number =   54
effective nuclear charge =   54
electron count =   12
net charge =   42
basis set = approximate basis set limit (UGBS)      
exchange correlation functional = PW91PW91            
cutoff radius (picometer) =  300
number of shells =   50
prepared by = Thomas A. Manz      
prepared date = July 2010           
net magnetization =    0
density in atomic units:
0.21863781E+05
0.56413101E+02
0.82891445E+01
0.22210946E+01
0.42773363E+00
0.59400383E-01
0.73926328E-02
0.10032540E-02
0.12377491E-03
0.15940297E-04
0.20946577E-05
0.23771534E-06
0.27122530E-07
0.82796614E-08
0.65648562E-08
0.30766731E-08
0.52404403E-09
0.10389489E-09
0.69668887E-09
0.12026635E-08
0.12050388E-08
0.84681751E-09
0.42468254E-09
0.12965422E-09
0.11399626E-10
0.26838434E-10
0.99175050E-10
0.16587130E-09
0.19900631E-09
0.19251066E-09
0.15770688E-09
0.11047601E-09
0.65413064E-10
0.30498742E-10
0.92769013E-11
0.93481429E-12
0.18231913E-11
0.81041181E-11
0.16357853E-10
0.23714548E-10
0.28671916E-10
0.30797209E-10
0.30103323E-10
0.27273838E-10
0.23008638E-10
0.18148536E-10
0.13282958E-10
0.89209057E-11
0.53666386E-11
0.27680948E-11
