atomic number =   23
effective nuclear charge =   23
electron count =   10
net charge =   13
basis set = approximate basis set limit (UGBS)      
exchange correlation functional = PW91PW91            
cutoff radius (picometer) =  400
number of shells =   75
prepared by = Thomas A. Manz      
prepared date = July 2010           
net magnetization =    0
density in atomic units:
0.14368529E+04
0.72764565E+02
0.31018579E+02
0.11174149E+02
0.34018042E+01
0.89427698E+00
0.23418656E+00
0.60643874E-01
0.14736779E-01
0.36937122E-02
0.94796525E-03
0.24697001E-03
0.62181956E-04
0.15864363E-04
0.41043950E-05
0.11083603E-05
0.31334565E-06
0.94787282E-07
0.29474927E-07
0.88680778E-08
0.22532540E-08
0.40216755E-09
0.41893988E-10
0.67004215E-10
0.11568291E-09
0.11763325E-09
0.86380632E-10
0.48596047E-10
0.19208232E-10
0.51301663E-11
0.36920584E-11
0.92881666E-11
0.17096611E-10
0.23368628E-10
0.26201858E-10
0.25620207E-10
0.22346259E-10
0.17623999E-10
0.12601140E-10
0.79842270E-11
0.43348732E-11
0.19603709E-11
0.73027283E-12
0.41993733E-12
0.75715736E-12
0.14581035E-11
0.22675247E-11
0.30169038E-11
0.35818622E-11
0.39008874E-11
0.39692256E-11
0.38148469E-11
0.34851117E-11
0.30368837E-11
0.25349165E-11
0.20156281E-11
0.15191453E-11
0.10836116E-11
0.72390569E-12
0.44397708E-12
0.24502888E-12
0.12150915E-12
0.62301211E-13
0.54616854E-13
0.86301917E-13
0.14394131E-12
0.21635729E-12
0.29384709E-12
0.36891727E-12
0.43458653E-12
0.48798248E-12
0.52749943E-12
0.55088860E-12
0.55957262E-12
0.55401284E-12
