atomic number =   69
effective nuclear charge =   69
electron count =   36
net charge =   33
basis set = approximate basis set limit (UGBS)      
exchange correlation functional = PW91PW91            
cutoff radius (picometer) =  300
number of shells =   50
prepared by = Thomas A. Manz      
prepared date = July 2010           
net magnetization =    0
density in atomic units:
0.48712793E+05
0.22424301E+03
0.44883987E+02
0.12454286E+02
0.66138701E+01
0.28338840E+01
0.10137695E+01
0.35153753E+00
0.11259138E+00
0.35317026E-01
0.10495713E-01
0.29574709E-02
0.90957136E-03
0.27505597E-03
0.83866689E-04
0.25347388E-04
0.72712132E-05
0.21931971E-05
0.64771058E-06
0.20112283E-06
0.70196712E-07
0.27800304E-07
0.11921151E-07
0.50247375E-08
0.19692421E-08
0.85072122E-09
0.66481620E-09
0.80685569E-09
0.95884534E-09
0.98659714E-09
0.87983032E-09
0.68732453E-09
0.47395166E-09
0.28508382E-09
0.14940117E-09
0.74124637E-10
0.48736539E-10
0.57931111E-10
0.85875418E-10
0.11775739E-09
0.14376973E-09
0.15914860E-09
0.16193825E-09
0.15340096E-09
0.13639251E-09
0.11442054E-09
0.90456864E-10
0.67320288E-10
0.46950849E-10
0.30657133E-10
