atomic number =   34
effective nuclear charge =   34
electron count =   30
net charge =    4
basis set = approximate basis set limit (UGBS)      
exchange correlation functional = PW91PW91            
cutoff radius (picometer) =  400
number of shells =   75
prepared by = Thomas A. Manz      
prepared date = July 2010           
net magnetization =    0
density in atomic units:
0.49639766E+04
0.14562093E+03
0.35858345E+02
0.18099417E+02
0.12713983E+02
0.79558535E+01
0.46066017E+01
0.25193024E+01
0.13481628E+01
0.74347931E+00
0.43289450E+00
0.26706299E+00
0.17444734E+00
0.12144472E+00
0.88500686E-01
0.66473506E-01
0.50787028E-01
0.39289635E-01
0.30721389E-01
0.24143845E-01
0.19012097E-01
0.14943873E-01
0.11697926E-01
0.91541698E-02
0.71575441E-02
0.55853748E-02
0.43537989E-02
0.33966289E-02
0.26301453E-02
0.20355103E-02
0.15871862E-02
0.12360290E-02
0.95598912E-03
0.73783292E-03
0.57341857E-03
0.44549245E-03
0.34456488E-03
0.26723550E-03
0.20809536E-03
0.16137000E-03
0.12472367E-03
0.96851989E-04
0.75238364E-04
0.58360984E-04
0.45336143E-04
0.35211440E-04
0.27372264E-04
0.21265321E-04
0.16485506E-04
0.12795655E-04
0.99413182E-05
0.77371760E-05
0.60120133E-05
0.46744035E-05
0.36486508E-05
0.28421446E-05
0.22099709E-05
0.17215298E-05
0.13436228E-05
0.10479592E-05
0.81661767E-06
0.63785512E-06
0.49818027E-06
0.38859918E-06
0.30294078E-06
0.23615314E-06
0.18442866E-06
0.14375982E-06
0.11189106E-06
0.87264297E-07
0.68213872E-07
0.53094396E-07
0.41257444E-07
0.32094803E-07
0.25012376E-07
