atomic number =   36
effective nuclear charge =   36
electron count =    2
net charge =   34
basis set = approximate basis set limit (UGBS)      
exchange correlation functional = PW91PW91            
cutoff radius (picometer) =  300
number of shells =   50
prepared by = Thomas A. Manz      
prepared date = July 2010           
net magnetization =    0
density in atomic units:
0.50307158E+04
0.31910878E+00
0.19232121E-03
0.94448887E-06
0.11801026E-06
0.28332757E-07
0.24325029E-07
0.11760523E-07
0.10043634E-08
0.44211448E-08
0.28299774E-08
0.32202185E-09
0.22458813E-09
0.71725986E-09
0.68104394E-09
0.31455491E-09
0.52861288E-10
0.98246949E-11
0.68979308E-10
0.11968312E-09
0.12008995E-09
0.84421047E-10
0.42314617E-10
0.12870492E-10
0.10760802E-11
0.26329965E-11
0.98708134E-11
0.16540972E-10
0.19856387E-10
0.19213532E-10
0.15737852E-10
0.11019948E-10
0.65201538E-11
0.30345340E-11
0.91712868E-12
0.85533387E-13
0.17542365E-12
0.80361997E-12
0.16275206E-11
0.23623330E-11
0.28585513E-11
0.30695611E-11
0.30028399E-11
0.27195058E-11
0.22938064E-11
0.18091463E-11
0.13233017E-11
0.88823848E-12
0.53360040E-12
0.27461922E-12
