atomic number =  106
effective nuclear charge =  106
electron count =   12
net charge =   94
basis set = approximate basis set limit (UGBS)      
exchange correlation functional = PW91PW91            
cutoff radius (picometer) =  300
number of shells =   50
prepared by = Thomas A. Manz      
prepared date = July 2010           
net magnetization =    0
density in atomic units:
0.17616048E+06
0.22787539E+02
0.32650086E+00
0.25196604E-02
0.20912727E-04
0.39884749E-05
0.32610351E-05
0.16499505E-05
0.14014529E-06
0.57965650E-06
0.38283940E-06
0.47899277E-07
0.29026957E-07
0.93238818E-07
0.89999098E-07
0.42476966E-07
0.76813116E-08
0.14276466E-08
0.88818828E-08
0.15545382E-07
0.15739383E-07
0.11175955E-07
0.56882410E-08
0.17981714E-08
0.19716040E-09
0.35242154E-09
0.12732843E-08
0.21407092E-08
0.25827325E-08
0.25115352E-08
0.20684108E-08
0.14581193E-08
0.87136992E-09
0.41336104E-09
0.13198341E-09
0.18242489E-10
0.25567161E-10
0.10443912E-09
0.21024646E-09
0.30558572E-09
0.37066708E-09
0.39939679E-09
0.39163167E-09
0.35576397E-09
0.30107300E-09
0.23835769E-09
0.17519955E-09
0.11834501E-09
0.71847563E-10
0.37695486E-10
