atomic number =  107
effective nuclear charge =  107
electron count =   46
net charge =   61
basis set = approximate basis set limit (UGBS)      
exchange correlation functional = PW91PW91            
cutoff radius (picometer) =  300
number of shells =   50
prepared by = Thomas A. Manz      
prepared date = July 2010           
net magnetization =    0
density in atomic units:
0.18360453E+06
0.23769481E+03
0.73711060E+02
0.15404317E+02
0.21072996E+01
0.19699490E+00
0.17002137E-01
0.18962258E-02
0.18560718E-03
0.15098150E-04
0.13177835E-05
0.14245141E-06
0.37068606E-07
0.11406363E-06
0.13582248E-06
0.85995246E-07
0.31638116E-07
0.92857881E-08
0.10506865E-07
0.18323984E-07
0.21491024E-07
0.18327174E-07
0.12086114E-07
0.62243011E-08
0.25612199E-08
0.12779222E-08
0.15622085E-08
0.24008588E-08
0.31162142E-08
0.33623437E-08
0.31175864E-08
0.25381444E-08
0.18381713E-08
0.11774580E-08
0.66733091E-09
0.34985306E-09
0.20354321E-09
0.18547558E-09
0.24696081E-09
0.33923150E-09
0.42609730E-09
0.48721061E-09
0.51194293E-09
0.50033844E-09
0.45896462E-09
0.39786446E-09
0.32608358E-09
0.25284777E-09
0.18525627E-09
0.12841679E-09
