atomic number =   53
effective nuclear charge =   53
electron count =    4
net charge =   49
basis set = approximate basis set limit (UGBS)      
exchange correlation functional = PW91PW91            
cutoff radius (picometer) =  300
number of shells =   50
prepared by = Thomas A. Manz      
prepared date = July 2010           
net magnetization =    0
density in atomic units:
0.19806428E+05
0.16914330E+02
0.37173238E+00
0.50638779E-02
0.82508144E-04
0.15616661E-05
0.18776801E-06
0.10412786E-06
0.93511341E-08
0.40620140E-07
0.25792687E-07
0.28989466E-08
0.21070685E-08
0.66249002E-08
0.62557191E-08
0.28746272E-08
0.47759324E-09
0.93784210E-10
0.64386257E-09
0.11097786E-08
0.11098739E-08
0.77814394E-09
0.38883277E-09
0.11757303E-09
0.96817745E-11
0.24928514E-10
0.92250381E-10
0.15393366E-09
0.18438702E-09
0.17813818E-09
0.14575749E-09
0.10191861E-09
0.60217963E-10
0.27958229E-10
0.84058585E-11
0.77195596E-12
0.16656544E-11
0.75295638E-11
0.15190191E-10
0.22002039E-10
0.26593104E-10
0.28532570E-10
0.27897070E-10
0.25250612E-10
0.21287139E-10
0.16780006E-10
0.12268536E-10
0.82274517E-11
0.49390375E-11
0.25375424E-11
