atomic number =   23
effective nuclear charge =   23
electron count =   12
net charge =   11
basis set = approximate basis set limit (UGBS)      
exchange correlation functional = PW91PW91            
cutoff radius (picometer) =  300
number of shells =   50
prepared by = Thomas A. Manz      
prepared date = July 2010           
net magnetization =    0
density in atomic units:
0.14519440E+04
0.60104576E+02
0.22044157E+02
0.62173228E+01
0.17920167E+01
0.70049685E+00
0.42781389E+00
0.29987687E+00
0.20293549E+00
0.13220796E+00
0.81693307E-01
0.48526168E-01
0.29255686E-01
0.17193634E-01
0.10064818E-01
0.58172881E-02
0.33125293E-02
0.19301185E-02
0.11071103E-02
0.63264713E-03
0.36189877E-03
0.20673827E-03
0.11876380E-03
0.68294852E-04
0.39163802E-04
0.22425960E-04
0.12868201E-04
0.74883128E-05
0.43115688E-05
0.24685237E-05
0.14213371E-05
0.81452282E-06
0.46923284E-06
0.26968581E-06
0.15525463E-06
0.90552618E-07
0.53373586E-07
0.31644969E-07
0.18795937E-07
0.11351874E-07
0.69697221E-08
0.42834594E-08
0.26651541E-08
0.16721859E-08
0.10462787E-08
0.65462002E-09
0.40406220E-09
0.24468949E-09
0.14393980E-09
0.81577960E-10
