atomic number =   87
effective nuclear charge =   87
electron count =   28
net charge =   59
basis set = approximate basis set limit (UGBS)      
exchange correlation functional = PW91PW91            
cutoff radius (picometer) =  300
number of shells =   50
prepared by = Thomas A. Manz      
prepared date = July 2010           
net magnetization =    0
density in atomic units:
0.10021217E+06
0.22648042E+03
0.15159296E+02
0.54085135E+00
0.17315408E-01
0.45632475E-03
0.10613329E-04
0.85841339E-06
0.73716414E-07
0.25103486E-06
0.19102895E-06
0.38130139E-07
0.15192761E-07
0.39790962E-07
0.41419696E-07
0.22438456E-07
0.62231567E-08
0.17006523E-08
0.38528190E-08
0.66195236E-08
0.70414767E-08
0.53752016E-08
0.30791159E-08
0.12755027E-08
0.37973091E-09
0.26540040E-09
0.55629429E-09
0.89969165E-09
0.11085883E-08
0.11168102E-08
0.96132291E-09
0.71847822E-09
0.46801135E-09
0.25894992E-09
0.11804607E-09
0.47800073E-10
0.32400495E-10
0.52636760E-10
0.89996115E-10
0.12806944E-09
0.15684472E-09
0.17216126E-09
0.17279468E-09
0.16105954E-09
0.14048430E-09
0.11530144E-09
0.88746475E-10
0.63812358E-10
0.42504233E-10
0.26000877E-10
