atomic number =   53
effective nuclear charge =   53
electron count =   18
net charge =   35
basis set = approximate basis set limit (UGBS)      
exchange correlation functional = PW91PW91            
cutoff radius (picometer) =  300
number of shells =   50
prepared by = Thomas A. Manz      
prepared date = July 2010           
net magnetization =    0
density in atomic units:
0.20598490E+05
0.79116478E+02
0.28765429E+02
0.89538994E+01
0.19594998E+01
0.31705225E+00
0.47036216E-01
0.75791595E-02
0.11150646E-02
0.17016054E-03
0.26549364E-04
0.37963644E-05
0.54437965E-06
0.58701652E-07
0.78704430E-08
0.34583878E-08
0.11100623E-08
0.26713717E-09
0.74255163E-09
0.14499960E-08
0.16722539E-08
0.13781120E-08
0.86580437E-09
0.40964424E-09
0.14107203E-09
0.62016274E-10
0.10098865E-09
0.17625736E-09
0.23618363E-09
0.25571292E-09
0.23529140E-09
0.18868583E-09
0.13341335E-09
0.82135188E-10
0.43380230E-10
0.20085459E-10
0.10252320E-10
0.10319873E-10
0.16342839E-10
0.24425160E-10
0.31766721E-10
0.36867003E-10
0.38910795E-10
0.38014050E-10
0.34736373E-10
0.29911573E-10
0.24268755E-10
0.18552283E-10
0.13311197E-10
0.89450149E-11
