atomic number =   77
effective nuclear charge =   77
electron count =   10
net charge =   67
basis set = approximate basis set limit (UGBS)      
exchange correlation functional = PW91PW91            
cutoff radius (picometer) =  300
number of shells =   50
prepared by = Thomas A. Manz      
prepared date = July 2010           
net magnetization =    0
density in atomic units:
0.66417180E+05
0.10146197E+02
0.19400598E-01
0.29420431E-04
0.38717940E-05
0.95283229E-06
0.71243920E-06
0.36763788E-06
0.30400358E-07
0.12791182E-06
0.84968562E-07
0.10646960E-07
0.63167680E-08
0.20552303E-07
0.19894593E-07
0.94022372E-08
0.16991022E-08
0.30610192E-09
0.19504944E-08
0.34254246E-08
0.34719978E-08
0.24665887E-08
0.12556112E-08
0.39657974E-09
0.42679148E-10
0.76632645E-10
0.27978991E-09
0.47132082E-09
0.56901495E-09
0.55353400E-09
0.45588361E-09
0.32132269E-09
0.19200112E-09
0.91004621E-10
0.28971534E-10
0.38956616E-11
0.55186485E-11
0.22912125E-10
0.46251902E-10
0.67276081E-10
0.81642498E-10
0.87951729E-10
0.86275279E-10
0.78352755E-10
0.66307120E-10
0.52483129E-10
0.38571760E-10
0.26046625E-10
0.15805815E-10
0.82810633E-11
