atomic number =   50
effective nuclear charge =   50
electron count =   28
net charge =   22
basis set = approximate basis set limit (UGBS)      
exchange correlation functional = PW91PW91            
cutoff radius (picometer) =  300
number of shells =   50
prepared by = Thomas A. Manz      
prepared date = July 2010           
net magnetization =    0
density in atomic units:
0.17117984E+05
0.13696056E+03
0.55661381E+02
0.19606926E+02
0.53283043E+01
0.11386648E+01
0.23147517E+00
0.51268216E-01
0.10751800E-01
0.23308045E-02
0.50178607E-03
0.10126265E-03
0.22196509E-04
0.46780201E-05
0.10336397E-05
0.25396605E-06
0.66519462E-07
0.20133101E-07
0.66084884E-08
0.28402372E-08
0.16640935E-08
0.10447901E-08
0.57750804E-09
0.25184860E-09
0.87827412E-10
0.57464554E-10
0.99715750E-10
0.15620394E-09
0.19407187E-09
0.19971257E-09
0.17707560E-09
0.13773101E-09
0.94819472E-10
0.57007392E-10
0.29712829E-10
0.14252065E-10
0.85824741E-11
0.97840382E-11
0.14843219E-10
0.20913535E-10
0.26068460E-10
0.29334868E-10
0.30262307E-10
0.29034797E-10
0.26140040E-10
0.22218352E-10
0.17819230E-10
0.13480911E-10
0.95874472E-11
0.64029042E-11
