atomic number =   28
effective nuclear charge =   28
electron count =   12
net charge =   16
basis set = approximate basis set limit (UGBS)      
exchange correlation functional = PW91PW91            
cutoff radius (picometer) =  300
number of shells =   50
prepared by = Thomas A. Manz      
prepared date = July 2010           
net magnetization =    0
density in atomic units:
0.26626548E+04
0.79453758E+02
0.18731058E+02
0.37709515E+01
0.13094338E+01
0.73976952E+00
0.44872016E+00
0.26136652E+00
0.14144810E+00
0.74349433E-01
0.37451316E-01
0.18290523E-01
0.92829475E-02
0.46076360E-02
0.22903050E-02
0.11287628E-02
0.54756139E-03
0.27494627E-03
0.13573750E-03
0.66811932E-04
0.32971100E-04
0.16261101E-04
0.80926184E-05
0.40496889E-05
0.20319933E-05
0.10268210E-05
0.52530646E-06
0.27606652E-06
0.14445425E-06
0.75375056E-07
0.39512692E-07
0.20382096E-07
0.10356217E-07
0.50620308E-08
0.23431384E-08
0.10153871E-08
0.39223996E-09
0.12333028E-09
0.26059143E-10
0.58493618E-11
0.12383801E-10
0.23694970E-10
0.31135077E-10
0.32935158E-10
0.30123373E-10
0.24565355E-10
0.17947343E-10
0.11650430E-10
0.65246497E-11
0.29893700E-11
