atomic number =   67
effective nuclear charge =   67
electron count =   48
net charge =   19
basis set = approximate basis set limit (UGBS)      
exchange correlation functional = PW91PW91            
cutoff radius (picometer) =  300
number of shells =   50
prepared by = Thomas A. Manz      
prepared date = July 2010           
net magnetization =    0
density in atomic units:
0.44389523E+05
0.22761781E+03
0.49948139E+02
0.19423637E+02
0.12947092E+02
0.66782207E+01
0.29799566E+01
0.13603399E+01
0.64515209E+00
0.34131041E+00
0.19584905E+00
0.11932837E+00
0.77804454E-01
0.50802995E-01
0.33313751E-01
0.21597341E-01
0.13800940E-01
0.89437049E-02
0.57040360E-02
0.36169367E-02
0.22901895E-02
0.14456437E-02
0.91503549E-03
0.57847920E-03
0.36417134E-03
0.22850525E-03
0.14342376E-03
0.90961745E-04
0.57115929E-04
0.35685149E-04
0.22395854E-04
0.14000442E-04
0.87894259E-05
0.55021828E-05
0.34441380E-05
0.21736375E-05
0.13784604E-05
0.87349065E-06
0.55043205E-06
0.34915760E-06
0.22287240E-06
0.14117913E-06
0.89822386E-07
0.57295718E-07
0.36379060E-07
0.23165446E-07
0.14684590E-07
0.92838324E-08
0.58535607E-08
0.36956893E-08
