atomic number =   79
effective nuclear charge =   79
electron count =   62
net charge =   17
basis set = approximate basis set limit (UGBS)      
exchange correlation functional = PW91PW91            
cutoff radius (picometer) =  300
number of shells =   50
prepared by = Thomas A. Manz      
prepared date = July 2010           
net magnetization =    0
density in atomic units:
0.75125172E+05
0.27270825E+03
0.72183098E+02
0.41533073E+02
0.19573332E+02
0.74070072E+01
0.28845568E+01
0.12881340E+01
0.60601926E+00
0.30222440E+00
0.15063745E+00
0.74050389E-01
0.38110167E-01
0.19289678E-01
0.98060947E-02
0.49437215E-02
0.24509334E-02
0.12539650E-02
0.63045271E-03
0.31604906E-03
0.15889434E-03
0.79812882E-04
0.40369672E-04
0.20449181E-04
0.10324135E-04
0.52109440E-05
0.26432192E-05
0.13700620E-05
0.70521469E-06
0.36271271E-06
0.18889305E-06
0.98147595E-07
0.51347605E-07
0.26743642E-07
0.13880355E-07
0.72745299E-08
0.38458761E-08
0.20621826E-08
0.11395316E-08
0.68154615E-09
0.45284490E-09
0.33107889E-09
0.26192773E-09
0.21498925E-09
0.17688231E-09
0.14342293E-09
0.11306012E-09
0.86246628E-10
0.63722735E-10
0.46059226E-10
