atomic number =   53
effective nuclear charge =   53
electron count =    2
net charge =   51
basis set = approximate basis set limit (UGBS)      
exchange correlation functional = PW91PW91            
cutoff radius (picometer) =  300
number of shells =   50
prepared by = Thomas A. Manz      
prepared date = July 2010           
net magnetization =    0
density in atomic units:
0.17567531E+05
0.65687392E-02
0.59206050E-05
0.25259737E-05
0.60147124E-06
0.15217809E-06
0.11617215E-06
0.59354242E-07
0.46424051E-08
0.20832687E-07
0.13730272E-07
0.16359477E-08
0.10056348E-08
0.33450447E-08
0.32234730E-08
0.15073828E-08
0.26014377E-09
0.43512235E-10
0.31685160E-09
0.55720167E-09
0.56278299E-09
0.39761658E-09
0.20044484E-09
0.61611341E-10
0.53179943E-11
0.11875089E-10
0.45468313E-10
0.76724418E-10
0.92448951E-10
0.89676135E-10
0.73612672E-10
0.51639561E-10
0.30629038E-10
0.14307879E-10
0.43592486E-11
0.41741355E-12
0.79126451E-12
0.36945867E-11
0.75274309E-11
0.10958009E-10
0.13281884E-10
0.14282148E-10
0.13982051E-10
0.12671865E-10
0.10694931E-10
0.84421116E-11
0.61798804E-11
0.41518919E-11
0.24975664E-11
0.12879990E-11
