atomic number =   97
effective nuclear charge =   97
electron count =   46
net charge =   51
basis set = approximate basis set limit (UGBS)      
exchange correlation functional = PW91PW91            
cutoff radius (picometer) =  300
number of shells =   50
prepared by = Thomas A. Manz      
prepared date = July 2010           
net magnetization =    0
density in atomic units:
0.13967859E+06
0.24052240E+03
0.69940361E+02
0.23199055E+02
0.48826499E+01
0.71794462E+00
0.97230926E-01
0.14740139E-01
0.19664608E-02
0.26156078E-03
0.38034344E-04
0.59804752E-05
0.11134729E-05
0.22883846E-06
0.82895092E-07
0.37579660E-07
0.12111116E-07
0.52357358E-08
0.84371816E-08
0.12429747E-07
0.12652717E-07
0.95940873E-08
0.56330101E-08
0.25682803E-08
0.10389800E-08
0.80829909E-09
0.12431853E-08
0.17607104E-08
0.20543229E-08
0.20199944E-08
0.17233515E-08
0.12915168E-08
0.85640567E-09
0.49671622E-09
0.25511224E-09
0.13371193E-09
0.10466542E-09
0.13507868E-09
0.19369770E-09
0.25309860E-09
0.29680117E-09
0.31796951E-09
0.31472977E-09
0.29131766E-09
0.25342436E-09
0.20841535E-09
0.16156346E-09
0.11794217E-09
0.80814175E-10
0.52050895E-10
