atomic number =   67
effective nuclear charge =   67
electron count =   28
net charge =   39
basis set = approximate basis set limit (UGBS)      
exchange correlation functional = PW91PW91            
cutoff radius (picometer) =  300
number of shells =   50
prepared by = Thomas A. Manz      
prepared date = July 2010           
net magnetization =    0
density in atomic units:
0.44049812E+05
0.20644978E+03
0.45956722E+02
0.57022929E+01
0.57592380E+00
0.43258872E-01
0.31074518E-02
0.30425494E-03
0.27023181E-04
0.20326822E-05
0.17110472E-06
0.13503699E-07
0.10375965E-07
0.27584660E-07
0.27078716E-07
0.14242887E-07
0.40274033E-08
0.13900711E-08
0.28339926E-08
0.45204849E-08
0.46737396E-08
0.35241612E-08
0.20167308E-08
0.85491464E-09
0.28717326E-09
0.22086689E-09
0.40995954E-09
0.62782179E-09
0.75584455E-09
0.75325624E-09
0.64545164E-09
0.48245663E-09
0.31612130E-09
0.17781042E-09
0.84756271E-10
0.38288053E-10
0.27876822E-10
0.40840224E-10
0.65027400E-10
0.89634897E-10
0.10814679E-09
0.11779443E-09
0.11777769E-09
0.10963179E-09
0.95665552E-10
0.78664832E-10
0.60791629E-10
0.44025686E-10
0.29681327E-10
0.18550163E-10
