atomic number =   61
effective nuclear charge =   61
electron count =   30
net charge =   31
basis set = approximate basis set limit (UGBS)      
exchange correlation functional = PW91PW91            
cutoff radius (picometer) =  300
number of shells =   50
prepared by = Thomas A. Manz      
prepared date = July 2010           
net magnetization =    0
density in atomic units:
0.32722184E+05
0.18506056E+03
0.55034031E+02
0.10792850E+02
0.27426615E+01
0.10118051E+01
0.41382331E+00
0.16694137E+00
0.60985025E-01
0.21370947E-01
0.70701363E-02
0.22304838E-02
0.75604516E-03
0.24783213E-03
0.80200167E-04
0.25288058E-04
0.75236053E-05
0.23375358E-05
0.70141095E-06
0.21225921E-06
0.67244834E-07
0.22714891E-07
0.83537692E-08
0.33196563E-08
0.14778070E-08
0.84784063E-09
0.66884809E-09
0.61974881E-09
0.56825433E-09
0.47898369E-09
0.36227182E-09
0.24018257E-09
0.13645179E-09
0.62007170E-10
0.20411424E-10
0.72317118E-11
0.13223708E-10
0.29543624E-10
0.48667358E-10
0.64535752E-10
0.74285918E-10
0.77241102E-10
0.73884211E-10
0.65803987E-10
0.54772707E-10
0.42727263E-10
0.30967982E-10
0.20639740E-10
0.12366179E-10
0.64394341E-11
