atomic number =   71
effective nuclear charge =   71
electron count =   54
net charge =   17
basis set = approximate basis set limit (UGBS)      
exchange correlation functional = PW91PW91            
cutoff radius (picometer) =  300
number of shells =   50
prepared by = Thomas A. Manz      
prepared date = July 2010           
net magnetization =    0
density in atomic units:
0.53490816E+05
0.24000949E+03
0.47598404E+02
0.22767683E+02
0.13541140E+02
0.59874897E+01
0.25691581E+01
0.13638148E+01
0.88069737E+00
0.64492005E+00
0.48116699E+00
0.35280427E+00
0.25849965E+00
0.18419829E+00
0.12964372E+00
0.89600295E-01
0.60955673E-01
0.41899588E-01
0.28393488E-01
0.19150050E-01
0.12910950E-01
0.86925104E-02
0.58754799E-02
0.39748368E-02
0.26844200E-02
0.18118684E-02
0.12253220E-02
0.83718699E-03
0.56790910E-03
0.38396695E-03
0.26077681E-03
0.17659455E-03
0.12003916E-03
0.81389335E-04
0.55164062E-04
0.37631296E-04
0.25756533E-04
0.17602373E-04
0.11965084E-04
0.81708358E-05
0.56036306E-05
0.38150038E-05
0.26047298E-05
0.17809173E-05
0.12126038E-05
0.82680316E-06
0.56134758E-06
0.38049814E-06
0.25737791E-06
0.17461849E-06
