atomic number =   66
effective nuclear charge =   66
electron count =   28
net charge =   38
basis set = approximate basis set limit (UGBS)      
exchange correlation functional = PW91PW91            
cutoff radius (picometer) =  300
number of shells =   50
prepared by = Thomas A. Manz      
prepared date = July 2010           
net magnetization =    0
density in atomic units:
0.41968387E+05
0.20286847E+03
0.47622601E+02
0.62905536E+01
0.67277277E+00
0.53624853E-01
0.40979502E-02
0.41704712E-03
0.38079681E-04
0.29712796E-05
0.23251468E-06
0.15027823E-07
0.10236962E-07
0.26226825E-07
0.25143095E-07
0.12869451E-07
0.34262120E-08
0.11488882E-08
0.26096956E-08
0.42054511E-08
0.43272355E-08
0.32340337E-08
0.18234260E-08
0.75027806E-09
0.23700519E-09
0.18971383E-09
0.37520601E-09
0.58203192E-09
0.70148537E-09
0.69743239E-09
0.59518607E-09
0.44227730E-09
0.28721162E-09
0.15912338E-09
0.73716838E-10
0.31832162E-10
0.23403002E-10
0.36481880E-10
0.59688428E-10
0.82957814E-10
0.10030774E-09
0.10927843E-09
0.10909625E-09
0.10136155E-09
0.88226038E-10
0.72311018E-10
0.55635715E-10
0.40060670E-10
0.26783095E-10
0.16522615E-10
