atomic number =   26
effective nuclear charge =   26
electron count =    2
net charge =   24
basis set = approximate basis set limit (UGBS)      
exchange correlation functional = PW91PW91            
cutoff radius (picometer) =  300
number of shells =   50
prepared by = Thomas A. Manz      
prepared date = May 2010            
net magnetization =    0
density in atomic units:
0.18191647E+04
0.22278986E+01
0.11554320E-01
0.60544407E-04
0.22955211E-06
0.40372350E-08
0.10529093E-07
0.41545563E-08
0.44913104E-09
0.18196648E-08
0.10837164E-08
0.11045940E-09
0.10217657E-09
0.29869798E-09
0.27448671E-09
0.12334170E-09
0.19536227E-10
0.45636043E-11
0.29562814E-10
0.49878414E-10
0.49362063E-10
0.34334990E-10
0.17004773E-10
0.50590092E-11
0.39660571E-12
0.11671491E-11
0.41975082E-11
0.69360728E-11
0.82647665E-11
0.79567698E-11
0.64915035E-11
0.45269227E-11
0.26659321E-11
0.12317173E-11
0.36638138E-12
0.32456005E-13
0.77463772E-13
0.34233288E-12
0.68557735E-12
0.98957799E-12
0.11935337E-11
0.12789319E-11
0.12485488E-11
0.11290107E-11
0.95093421E-12
0.74898985E-12
0.54705898E-12
0.36652259E-12
0.21962830E-12
0.11259117E-12
