atomic number =   76
effective nuclear charge =   76
electron count =   46
net charge =   30
basis set = approximate basis set limit (UGBS)      
exchange correlation functional = PW91PW91            
cutoff radius (picometer) =  300
number of shells =   50
prepared by = Thomas A. Manz      
prepared date = July 2010           
net magnetization =    0
density in atomic units:
0.66386109E+05
0.24733087E+03
0.46714153E+02
0.25266550E+02
0.12950245E+02
0.47417240E+01
0.15258969E+01
0.49823269E+00
0.15463692E+00
0.48505004E-01
0.14730106E-01
0.42799548E-02
0.13611042E-02
0.43178786E-03
0.14133369E-03
0.46841440E-04
0.14969216E-04
0.49562759E-05
0.15520773E-05
0.47324312E-06
0.14484988E-06
0.45118604E-07
0.14402512E-07
0.44703166E-08
0.13563507E-08
0.69931344E-09
0.85312518E-09
0.11214756E-08
0.12481826E-08
0.11754249E-08
0.95742636E-09
0.67764500E-09
0.41503403E-09
0.21155916E-09
0.86111944E-10
0.33732100E-10
0.33949656E-10
0.65312436E-10
0.10862351E-09
0.14782724E-09
0.17437239E-09
0.18542340E-09
0.18103143E-09
0.16452811E-09
0.13995451E-09
0.11191154E-09
0.83665984E-10
0.58170635E-10
0.37146928E-10
0.21523738E-10
