atomic number =  101
effective nuclear charge =  101
electron count =   30
net charge =   71
basis set = approximate basis set limit (UGBS)      
exchange correlation functional = PW91PW91            
cutoff radius (picometer) =  300
number of shells =   50
prepared by = Thomas A. Manz      
prepared date = July 2010           
net magnetization =    0
density in atomic units:
0.15654666E+06
0.19348293E+03
0.13322758E+02
0.20134361E+01
0.24595921E+00
0.19571474E-01
0.13529311E-02
0.10677746E-03
0.69470630E-05
0.99641022E-06
0.38644782E-06
0.53903015E-07
0.24621338E-07
0.75672510E-07
0.74567325E-07
0.36165499E-07
0.71261645E-08
0.14078433E-08
0.72632345E-08
0.12758343E-07
0.13031313E-07
0.93540047E-08
0.48440771E-08
0.15996244E-08
0.22595072E-09
0.31072159E-09
0.10474320E-08
0.17585562E-08
0.21298150E-08
0.20810627E-08
0.17235604E-08
0.12240308E-08
0.73989970E-09
0.35876377E-09
0.12181209E-09
0.23109313E-10
0.25122149E-10
0.87358336E-10
0.17310640E-09
0.25140079E-09
0.30549888E-09
0.32985842E-09
0.32446976E-09
0.29565808E-09
0.25106114E-09
0.19961806E-09
0.14754752E-09
0.10047639E-09
0.61767202E-10
0.33155662E-10
