atomic number =   50
effective nuclear charge =   50
electron count =   18
net charge =   32
basis set = approximate basis set limit (UGBS)      
exchange correlation functional = PW91PW91            
cutoff radius (picometer) =  300
number of shells =   50
prepared by = Thomas A. Manz      
prepared date = July 2010           
net magnetization =    0
density in atomic units:
0.17072803E+05
0.78977203E+02
0.27027584E+02
0.10188966E+02
0.26893964E+01
0.52821141E+00
0.94623074E-01
0.18130146E-01
0.32244590E-02
0.58658194E-03
0.10416915E-03
0.16592863E-04
0.27694184E-05
0.40614120E-06
0.57179797E-07
0.92789589E-08
0.16730345E-08
0.68618955E-09
0.10510185E-08
0.14343764E-08
0.13955201E-08
0.10222913E-08
0.57228228E-09
0.23030407E-09
0.60111735E-10
0.34918266E-10
0.86360911E-10
0.15053056E-09
0.19280599E-09
0.19962003E-09
0.17609907E-09
0.13514374E-09
0.90858321E-10
0.52345382E-10
0.25096744E-10
0.10247150E-10
0.54856722E-11
0.76644689E-11
0.13595025E-10
0.20310384E-10
0.25860066E-10
0.29307636E-10
0.30243637E-10
0.28918347E-10
0.25874027E-10
0.21800893E-10
0.17277537E-10
0.12858921E-10
0.89331546E-11
0.57631469E-11
