atomic number =   45
effective nuclear charge =   45
electron count =   12
net charge =   33
basis set = approximate basis set limit (UGBS)      
exchange correlation functional = PW91PW91            
cutoff radius (picometer) =  300
number of shells =   50
prepared by = Thomas A. Manz      
prepared date = July 2010           
net magnetization =    0
density in atomic units:
0.12136397E+05
0.75350609E+02
0.81569595E+01
0.30640805E+01
0.10510615E+01
0.26622960E+00
0.59883721E-01
0.14048154E-01
0.30504810E-02
0.65085356E-03
0.13038417E-03
0.24128807E-04
0.51401371E-05
0.11379506E-05
0.27465776E-06
0.68422928E-07
0.14489982E-07
0.23663371E-08
0.40777018E-09
0.65270189E-09
0.82105889E-09
0.64200534E-09
0.34066605E-09
0.10886848E-09
0.10670503E-10
0.20542481E-10
0.78358535E-10
0.13284897E-09
0.16057866E-09
0.15608881E-09
0.12824783E-09
0.89993568E-10
0.53360004E-10
0.24900861E-10
0.75922723E-11
0.79894321E-12
0.15564952E-11
0.67268075E-11
0.13505965E-10
0.19540602E-10
0.23608070E-10
0.25342175E-10
0.24756744E-10
0.22411349E-10
0.18891454E-10
0.14893552E-10
0.10885887E-10
0.73002628E-11
0.43797466E-11
0.22505103E-11
