atomic number =  103
effective nuclear charge =  103
electron count =    2
net charge =  101
basis set = approximate basis set limit (UGBS)      
exchange correlation functional = PW91PW91            
cutoff radius (picometer) =  300
number of shells =   50
prepared by = Thomas A. Manz      
prepared date = July 2010           
net magnetization =    0
density in atomic units:
0.13484239E+06
0.12009728E-02
0.93546812E-04
0.30038036E-04
0.65132444E-05
0.18207641E-05
0.12357029E-05
0.66911878E-06
0.48882342E-07
0.22159851E-06
0.14993351E-06
0.18553525E-07
0.10292797E-07
0.35426815E-07
0.34557054E-07
0.16318705E-07
0.28738429E-08
0.44388659E-09
0.33213499E-08
0.59026890E-08
0.59920864E-08
0.42498707E-08
0.21514732E-08
0.66646716E-09
0.58880595E-10
0.12293536E-09
0.47817272E-09
0.81109852E-09
0.97999053E-09
0.95238706E-09
0.78288492E-09
0.55003818E-09
0.32678932E-09
0.15305206E-09
0.46895827E-10
0.45750244E-11
0.82011897E-11
0.38823490E-10
0.79449509E-10
0.11586374E-09
0.14063709E-09
0.15131599E-09
0.14827750E-09
0.13445345E-09
0.11354737E-09
0.89658947E-10
0.65678817E-10
0.44149427E-10
0.26581622E-10
0.13727962E-10
