atomic number =   71
effective nuclear charge =   71
electron count =   10
net charge =   61
basis set = approximate basis set limit (UGBS)      
exchange correlation functional = PW91PW91            
cutoff radius (picometer) =  300
number of shells =   50
prepared by = Thomas A. Manz      
prepared date = July 2010           
net magnetization =    0
density in atomic units:
0.51443555E+05
0.16471960E+02
0.57559047E-01
0.12442115E-03
0.33107478E-05
0.67871031E-06
0.49188537E-06
0.25949439E-06
0.22409171E-07
0.88618613E-07
0.59720193E-07
0.79671256E-08
0.44607731E-08
0.14236758E-07
0.13894615E-07
0.66676207E-08
0.12763299E-08
0.24441096E-09
0.13505277E-08
0.23734916E-08
0.24198075E-08
0.17324938E-08
0.89386576E-09
0.29224076E-09
0.38857736E-10
0.56046938E-10
0.19368594E-09
0.32597749E-09
0.39485959E-09
0.38567818E-09
0.31923136E-09
0.22644277E-09
0.13663529E-09
0.65983850E-10
0.22138525E-10
0.39332079E-11
0.44001513E-11
0.16014474E-10
0.31963491E-10
0.46514438E-10
0.56562668E-10
0.61097370E-10
0.60081676E-10
0.54718265E-10
0.46460426E-10
0.36920765E-10
0.27265268E-10
0.18549402E-10
0.11377022E-10
0.60818382E-11
