atomic number =   34
effective nuclear charge =   34
electron count =   10
net charge =   24
basis set = approximate basis set limit (UGBS)      
exchange correlation functional = PW91PW91            
cutoff radius (picometer) =  300
number of shells =   50
prepared by = Thomas A. Manz      
prepared date = July 2010           
net magnetization =    0
density in atomic units:
0.48560127E+04
0.87394783E+02
0.11968023E+02
0.12001915E+01
0.11293722E+00
0.83070518E-02
0.60000148E-03
0.55967572E-04
0.45773072E-05
0.33983159E-06
0.26222429E-07
0.20993587E-08
0.45996282E-09
0.89315810E-09
0.88749580E-09
0.45932466E-09
0.11024661E-09
0.19535941E-10
0.71668858E-10
0.13468054E-09
0.14579113E-09
0.11140218E-09
0.63114403E-10
0.25088594E-10
0.62709269E-11
0.40380789E-11
0.10433367E-10
0.17967862E-10
0.22667672E-10
0.23089152E-10
0.19991181E-10
0.14983534E-10
0.97590365E-11
0.53604196E-11
0.23749334E-11
0.87077898E-12
0.52631944E-12
0.94302745E-12
0.17329687E-11
0.25490716E-11
0.31780884E-11
0.35269450E-11
0.35671340E-11
0.33443038E-11
0.29305744E-11
0.24134978E-11
0.18628354E-11
0.13427219E-11
0.89492362E-12
0.54579518E-12
