atomic number =   33
effective nuclear charge =   33
electron count =   30
net charge =    3
basis set = approximate basis set limit (UGBS)      
exchange correlation functional = PW91PW91            
cutoff radius (picometer) =  300
number of shells =   50
prepared by = Thomas A. Manz      
prepared date = July 2010           
net magnetization =    0
density in atomic units:
0.45118115E+04
0.99190216E+02
0.24406836E+02
0.13801764E+02
0.93078852E+01
0.53319678E+01
0.28380830E+01
0.15277230E+01
0.81751102E+00
0.45770392E+00
0.26679188E+00
0.16489062E+00
0.11201827E+00
0.79334043E-01
0.58511421E-01
0.44049062E-01
0.33546317E-01
0.26085600E-01
0.20245295E-01
0.15724806E-01
0.12222756E-01
0.94871819E-02
0.73723309E-02
0.57204962E-02
0.44254158E-02
0.34158174E-02
0.26368494E-02
0.20469131E-02
0.15798903E-02
0.12164975E-02
0.93910401E-03
0.72331703E-03
0.55836141E-03
0.42999565E-03
0.33093221E-03
0.25552456E-03
0.19763604E-03
0.15254652E-03
0.11721758E-03
0.90342997E-04
0.69809845E-04
0.53683951E-04
0.41376810E-04
0.31940006E-04
0.24601728E-04
0.18988347E-04
0.14627845E-04
0.11263504E-04
0.86691534E-05
0.66838106E-05
