atomic number =   87
effective nuclear charge =   87
electron count =    2
net charge =   85
basis set = approximate basis set limit (UGBS)      
exchange correlation functional = PW91PW91            
cutoff radius (picometer) =  300
number of shells =   50
prepared by = Thomas A. Manz      
prepared date = July 2010           
net magnetization =    0
density in atomic units:
0.83714062E+05
0.56021119E-03
0.51597832E-04
0.16628075E-04
0.36611650E-05
0.10068318E-05
0.69657716E-06
0.37364254E-06
0.27574275E-07
0.12486726E-06
0.84138506E-07
0.10351538E-07
0.58332765E-08
0.19971935E-07
0.19444787E-07
0.91687733E-08
0.16098750E-08
0.25160748E-09
0.18750796E-08
0.33270986E-08
0.33752126E-08
0.23922493E-08
0.12103939E-08
0.37450318E-09
0.32972586E-10
0.69529556E-10
0.26981634E-09
0.45732912E-09
0.55233884E-09
0.53660892E-09
0.44103143E-09
0.30975786E-09
0.18400688E-09
0.86153869E-10
0.26373154E-10
0.25656959E-11
0.46382876E-11
0.21909466E-10
0.44803564E-10
0.65332413E-10
0.79275010E-10
0.85311341E-10
0.83556502E-10
0.75765449E-10
0.63987871E-10
0.50518038E-10
0.37000531E-10
0.24872200E-10
0.14972867E-10
0.77294872E-11
