atomic number =  107
effective nuclear charge =  107
electron count =   80
net charge =   27
basis set = approximate basis set limit (UGBS)      
exchange correlation functional = PW91PW91            
cutoff radius (picometer) =  300
number of shells =   50
prepared by = Thomas A. Manz      
prepared date = July 2010           
net magnetization =    0
density in atomic units:
0.18434130E+06
0.36590726E+03
0.12194927E+03
0.32318626E+02
0.15522331E+02
0.82337675E+01
0.38299298E+01
0.17697281E+01
0.82589811E+00
0.41363356E+00
0.21523425E+00
0.11509224E+00
0.65572321E-01
0.37155099E-01
0.21160383E-01
0.11924552E-01
0.66089812E-02
0.37445952E-02
0.20816531E-02
0.11495631E-02
0.63404313E-03
0.34852192E-03
0.19246819E-03
0.10633138E-03
0.58552760E-04
0.32197437E-04
0.17747727E-04
0.99334293E-05
0.54969023E-05
0.30209133E-05
0.16683681E-05
0.91376387E-06
0.50144507E-06
0.27308496E-06
0.14809551E-06
0.81050565E-07
0.44738673E-07
0.24928895E-07
0.14124638E-07
0.83973877E-08
0.53181783E-08
0.35713625E-08
0.25501663E-08
0.19006932E-08
0.14388264E-08
0.10875570E-08
0.80444656E-09
0.57514388E-09
0.39348716E-09
0.25660341E-09
