atomic number =   79
effective nuclear charge =   79
electron count =   12
net charge =   67
basis set = approximate basis set limit (UGBS)      
exchange correlation functional = PW91PW91            
cutoff radius (picometer) =  300
number of shells =   50
prepared by = Thomas A. Manz      
prepared date = July 2010           
net magnetization =    0
density in atomic units:
0.74012445E+05
0.35073761E+02
0.34631324E+01
0.16639857E+00
0.62977825E-02
0.15074019E-03
0.54146285E-05
0.83603243E-06
0.46918817E-07
0.17559033E-06
0.11960577E-06
0.14822654E-07
0.89216661E-08
0.29345165E-07
0.28353004E-07
0.13316255E-07
0.23445801E-08
0.42462600E-09
0.28251563E-08
0.49418718E-08
0.49899742E-08
0.35290255E-08
0.17840918E-08
0.55397620E-09
0.53980303E-10
0.11085518E-09
0.40779008E-09
0.68452938E-09
0.82385576E-09
0.79918477E-09
0.65646977E-09
0.46110313E-09
0.27418420E-09
0.12879647E-09
0.40029955E-10
0.46865129E-11
0.77847234E-11
0.33453948E-10
0.67480674E-10
0.97972061E-10
0.11863832E-09
0.12756500E-09
0.12495953E-09
0.11331931E-09
0.95705735E-10
0.75614036E-10
0.55441200E-10
0.37330281E-10
0.22543859E-10
0.11709398E-10
