atomic number =   48
effective nuclear charge =   48
electron count =   28
net charge =   20
basis set = approximate basis set limit (UGBS)      
exchange correlation functional = PW91PW91            
cutoff radius (picometer) =  300
number of shells =   50
prepared by = Thomas A. Manz      
prepared date = July 2010           
net magnetization =    0
density in atomic units:
0.15006243E+05
0.13035893E+03
0.53029274E+02
0.20921762E+02
0.63837061E+01
0.15398415E+01
0.35244784E+00
0.86949483E-01
0.20446848E-01
0.49457853E-02
0.11752485E-02
0.26301492E-03
0.64552631E-04
0.15650730E-04
0.40249261E-05
0.11195815E-05
0.31797626E-06
0.97657754E-07
0.28297391E-07
0.78231963E-08
0.22298878E-08
0.77273110E-09
0.35546191E-09
0.18692359E-09
0.10961924E-09
0.90681053E-10
0.10520693E-09
0.12783091E-09
0.14228346E-09
0.14098193E-09
0.12527088E-09
0.10067947E-09
0.74121341E-10
0.50271693E-10
0.32259743E-10
0.21043896E-10
0.15610929E-10
0.14391287E-10
0.15724377E-10
0.18025347E-10
0.20134831E-10
0.21397859E-10
0.21511024E-10
0.20496464E-10
0.18572132E-10
0.16075750E-10
0.13301075E-10
0.10546465E-10
0.80346580E-11
0.59284665E-11
