atomic number =   35
effective nuclear charge =   35
electron count =    4
net charge =   31
basis set = approximate basis set limit (UGBS)      
exchange correlation functional = PW91PW91            
cutoff radius (picometer) =  300
number of shells =   50
prepared by = Thomas A. Manz      
prepared date = July 2010           
net magnetization =    0
density in atomic units:
0.51124741E+04
0.24455462E+02
0.35524504E+01
0.32420704E+00
0.26701061E-01
0.16564711E-02
0.99041179E-04
0.75730768E-05
0.50475296E-06
0.39951114E-07
0.61709784E-08
0.67316008E-09
0.22472595E-09
0.69459677E-09
0.67822653E-09
0.31874814E-09
0.54943557E-10
0.96723064E-11
0.68666704E-10
0.12017871E-09
0.12111467E-09
0.85386524E-10
0.42907337E-10
0.13095307E-10
0.11057877E-11
0.26445937E-11
0.99623009E-11
0.16721319E-10
0.20093338E-10
0.19453732E-10
0.15942315E-10
0.11164882E-10
0.66071580E-11
0.30751554E-11
0.92924789E-12
0.86624210E-13
0.17818291E-12
0.81556252E-12
0.16514990E-11
0.23967831E-11
0.29000229E-11
0.31133462E-11
0.30458895E-11
0.27585837E-11
0.23266521E-11
0.18347090E-11
0.13419904E-11
0.90053046E-12
0.54088445E-12
0.27818836E-12
