atomic number =  109
effective nuclear charge =  109
electron count =   80
net charge =   29
basis set = approximate basis set limit (UGBS)      
exchange correlation functional = PW91PW91            
cutoff radius (picometer) =  400
number of shells =   75
prepared by = Thomas A. Manz      
prepared date = July 2010           
net magnetization =    0
density in atomic units:
0.19368925E+06
0.47578156E+03
0.18247635E+03
0.54392582E+02
0.22006357E+02
0.12625968E+02
0.68171973E+01
0.32886786E+01
0.15327892E+01
0.75662214E+00
0.40121815E+00
0.22321533E+00
0.12700449E+00
0.73998593E-01
0.43374598E-01
0.25335893E-01
0.14629107E-01
0.84089162E-02
0.48459014E-02
0.27978939E-02
0.16098649E-02
0.92197588E-03
0.52172609E-03
0.29575138E-03
0.16763883E-03
0.94977018E-04
0.53917895E-04
0.30811236E-04
0.17428085E-04
0.98761429E-05
0.57193629E-05
0.33120357E-05
0.18943543E-05
0.10784989E-05
0.62125582E-06
0.35712307E-06
0.20204301E-06
0.11423852E-06
0.64636311E-07
0.35958397E-07
0.19694513E-07
0.10885151E-07
0.61011649E-08
0.35431644E-08
0.22279365E-08
0.15635367E-08
0.12271640E-08
0.10438801E-08
0.92112279E-09
0.81739499E-09
0.71489165E-09
0.61015487E-09
0.50437410E-09
0.40352818E-09
0.31307396E-09
0.23444838E-09
0.17009148E-09
0.12154487E-09
0.87859914E-10
0.67109734E-10
0.57254951E-10
0.55961773E-10
0.60756629E-10
0.69426284E-10
0.80026159E-10
0.90878575E-10
0.10069915E-09
0.10878941E-09
0.11427310E-09
0.11731630E-09
0.11789959E-09
0.11584372E-09
0.11155029E-09
0.10548717E-09
0.98029737E-10
