atomic number =   44
effective nuclear charge =   44
electron count =    4
net charge =   40
basis set = approximate basis set limit (UGBS)      
exchange correlation functional = PW91PW91            
cutoff radius (picometer) =  300
number of shells =   50
prepared by = Thomas A. Manz      
prepared date = July 2010           
net magnetization =    0
density in atomic units:
0.10770985E+05
0.23180994E+02
0.13147440E+01
0.47501948E-01
0.17120112E-02
0.43335276E-04
0.65244245E-06
0.33387089E-07
0.73154180E-08
0.16280698E-07
0.90064880E-08
0.91146535E-09
0.90002189E-09
0.25081368E-08
0.22773490E-08
0.10157735E-08
0.15973303E-09
0.40671445E-10
0.24949892E-09
0.41678680E-09
0.41067474E-09
0.28481323E-09
0.14063305E-09
0.41646707E-10
0.32846521E-11
0.99642430E-11
0.35260059E-10
0.58005167E-10
0.68953072E-10
0.66289349E-10
0.54020892E-10
0.37631030E-10
0.22132469E-10
0.10207786E-10
0.30256938E-11
0.26756800E-12
0.65985867E-12
0.28765621E-11
0.57396817E-11
0.82713706E-11
0.99655128E-11
0.10670243E-10
0.10412351E-10
0.94120076E-11
0.79245334E-11
0.62391507E-11
0.45553327E-11
0.30499370E-11
0.18270103E-11
0.93542004E-12
