atomic number =   59
effective nuclear charge =   59
electron count =   18
net charge =   41
basis set = approximate basis set limit (UGBS)      
exchange correlation functional = PW91PW91            
cutoff radius (picometer) =  300
number of shells =   50
prepared by = Thomas A. Manz      
prepared date = July 2010           
net magnetization =    0
density in atomic units:
0.29113910E+05
0.84207611E+02
0.29166544E+02
0.60924802E+01
0.91675454E+00
0.99840313E-01
0.10117659E-01
0.11719944E-02
0.11617313E-03
0.11405919E-04
0.13076243E-05
0.17794221E-06
0.33622431E-07
0.13186794E-07
0.87713357E-08
0.41165134E-08
0.96613317E-09
0.36884756E-09
0.10104945E-08
0.15872251E-08
0.15727266E-08
0.11187993E-08
0.58197447E-09
0.20002960E-09
0.39638418E-10
0.50552052E-10
0.13744020E-09
0.22051205E-09
0.26286681E-09
0.25521207E-09
0.21095248E-09
0.14994249E-09
0.91051500E-10
0.44733339E-10
0.15918681E-10
0.38654561E-11
0.40343085E-11
0.11522993E-10
0.21884905E-10
0.31356532E-10
0.37896047E-10
0.40814272E-10
0.40131516E-10
0.36573369E-10
0.31091484E-10
0.24768640E-10
0.18360353E-10
0.12563122E-10
0.77820476E-11
0.42379273E-11
