atomic number =   73
effective nuclear charge =   73
electron count =   28
net charge =   45
basis set = approximate basis set limit (UGBS)      
exchange correlation functional = PW91PW91            
cutoff radius (picometer) =  300
number of shells =   50
prepared by = Thomas A. Manz      
prepared date = July 2010           
net magnetization =    0
density in atomic units:
0.57971414E+05
0.22331395E+03
0.35447285E+02
0.30257747E+01
0.21746011E+00
0.11603718E-01
0.56987739E-03
0.43323420E-04
0.34026134E-05
0.36123444E-06
0.11924465E-06
0.19677561E-07
0.11673276E-07
0.29594132E-07
0.28732627E-07
0.14414995E-07
0.34690659E-08
0.10932459E-08
0.30612741E-08
0.50004383E-08
0.50680034E-08
0.36841206E-08
0.19798345E-08
0.73515277E-09
0.18561307E-09
0.18723248E-09
0.44350901E-09
0.70033701E-09
0.83594193E-09
0.81681295E-09
0.68179545E-09
0.49184412E-09
0.30618141E-09
0.15808582E-09
0.64011636E-10
0.22465245E-10
0.19747926E-10
0.40749990E-10
0.71567308E-10
0.10037397E-09
0.12060394E-09
0.12982776E-09
0.12797212E-09
0.11712353E-09
0.10021827E-09
0.80508947E-10
0.60426469E-10
0.42114218E-10
0.26890642E-10
0.15477834E-10
