atomic number =   33
effective nuclear charge =   33
electron count =   28
net charge =    5
basis set = approximate basis set limit (UGBS)      
exchange correlation functional = PW91PW91            
cutoff radius (picometer) =  300
number of shells =   50
prepared by = Thomas A. Manz      
prepared date = July 2010           
net magnetization =    0
density in atomic units:
0.45058447E+04
0.99042488E+02
0.24350657E+02
0.13679536E+02
0.92337465E+01
0.53154073E+01
0.28371415E+01
0.15170850E+01
0.79065150E+00
0.41784310E+00
0.21954313E+00
0.11579964E+00
0.64934194E-01
0.36528010E-01
0.20953750E-01
0.12099232E-01
0.70016109E-02
0.42045820E-02
0.25196320E-02
0.15200477E-02
0.92435570E-03
0.56389754E-03
0.34664906E-03
0.21371026E-03
0.13176088E-03
0.81385617E-04
0.50559665E-04
0.31912725E-04
0.20034300E-04
0.12559303E-04
0.79254860E-05
0.49852779E-05
0.31471855E-05
0.19783195E-05
0.12413830E-05
0.78440297E-06
0.49789844E-06
0.31617617E-06
0.20027045E-06
0.12832891E-06
0.83282316E-07
0.54112125E-07
0.35639417E-07
0.23763803E-07
0.15931795E-07
0.10799146E-07
0.73420692E-08
0.50078963E-08
0.34186971E-08
0.23379532E-08
