atomic number =   61
effective nuclear charge =   61
electron count =   48
net charge =   13
basis set = approximate basis set limit (UGBS)      
exchange correlation functional = PW91PW91            
cutoff radius (picometer) =  300
number of shells =   50
prepared by = Thomas A. Manz      
prepared date = July 2010           
net magnetization =    0
density in atomic units:
0.32775469E+05
0.20307764E+03
0.56470833E+02
0.16595976E+02
0.11054719E+02
0.71064091E+01
0.38375938E+01
0.19700227E+01
0.98106652E+00
0.51215118E+00
0.28194374E+00
0.16623223E+00
0.10775270E+00
0.71589656E-01
0.48543349E-01
0.32889660E-01
0.22117885E-01
0.15092377E-01
0.10158330E-01
0.67977179E-02
0.45363386E-02
0.30134446E-02
0.20025633E-02
0.13265506E-02
0.87380654E-03
0.57301141E-03
0.37546680E-03
0.24822468E-03
0.16262733E-03
0.10612253E-03
0.69598565E-04
0.45537385E-04
0.29950914E-04
0.19675241E-04
0.12940882E-04
0.85833362E-05
0.57221973E-05
0.38136868E-05
0.25294687E-05
0.16872658E-05
0.11308243E-05
0.75199711E-06
0.50128102E-06
0.33426917E-06
0.22141515E-06
0.14649825E-06
0.96107897E-07
0.62572241E-07
0.40376239E-07
0.25883795E-07
