atomic number =   87
effective nuclear charge =   87
electron count =   30
net charge =   57
basis set = approximate basis set limit (UGBS)      
exchange correlation functional = PW91PW91            
cutoff radius (picometer) =  300
number of shells =   50
prepared by = Thomas A. Manz      
prepared date = July 2010           
net magnetization =    0
density in atomic units:
0.10101151E+06
0.22987621E+03
0.20680468E+02
0.37532206E+01
0.85746628E+00
0.14134631E+00
0.19690953E-01
0.29047867E-02
0.40180920E-03
0.60265953E-04
0.90490184E-05
0.99627698E-06
0.66324894E-07
0.49197226E-07
0.60566833E-07
0.31781248E-07
0.73198807E-08
0.26721987E-08
0.80019831E-08
0.12757287E-07
0.12714984E-07
0.91136876E-08
0.48163180E-08
0.17322302E-08
0.40756770E-09
0.45541163E-09
0.11237421E-08
0.17772278E-08
0.21165247E-08
0.20622495E-08
0.17164039E-08
0.12334438E-08
0.76298662E-09
0.38929066E-09
0.15306266E-09
0.50145142E-10
0.45515539E-10
0.10071258E-09
0.18050288E-09
0.25475236E-09
0.30680850E-09
0.33064976E-09
0.32596575E-09
0.29830310E-09
0.25513189E-09
0.20483666E-09
0.15349834E-09
0.10669208E-09
0.67803554E-10
0.38644969E-10
