atomic number =   69
effective nuclear charge =   69
electron count =   48
net charge =   21
basis set = approximate basis set limit (UGBS)      
exchange correlation functional = PW91PW91            
cutoff radius (picometer) =  300
number of shells =   50
prepared by = Thomas A. Manz      
prepared date = July 2010           
net magnetization =    0
density in atomic units:
0.48799793E+05
0.23384863E+03
0.48319016E+02
0.20714819E+02
0.13223704E+02
0.63482504E+01
0.26901975E+01
0.11994600E+01
0.56912202E+00
0.30560744E+00
0.17779005E+00
0.10871724E+00
0.70460796E-01
0.45453504E-01
0.29356500E-01
0.18714689E-01
0.11747441E-01
0.74837892E-02
0.46905298E-02
0.29234062E-02
0.18203621E-02
0.11305587E-02
0.70462009E-03
0.43890558E-03
0.27237085E-03
0.16857196E-03
0.10438917E-03
0.65353692E-04
0.40497871E-04
0.24959902E-04
0.15448324E-04
0.95179657E-05
0.58857381E-05
0.36263978E-05
0.22320851E-05
0.13846487E-05
0.86262713E-06
0.53665644E-06
0.33181985E-06
0.20650685E-06
0.12938183E-06
0.80439996E-07
0.50273535E-07
0.31558265E-07
0.19745114E-07
0.12426427E-07
0.78074827E-08
0.49061013E-08
0.30923204E-08
0.19632671E-08
