atomic number =   52
effective nuclear charge =   52
electron count =   18
net charge =   34
basis set = approximate basis set limit (UGBS)      
exchange correlation functional = PW91PW91            
cutoff radius (picometer) =  300
number of shells =   50
prepared by = Thomas A. Manz      
prepared date = July 2010           
net magnetization =    0
density in atomic units:
0.19371826E+05
0.78880081E+02
0.28294178E+02
0.93957434E+01
0.21886497E+01
0.37786585E+00
0.59705492E-01
0.10192073E-01
0.15992688E-02
0.25928256E-03
0.42195505E-04
0.62112576E-05
0.92714589E-06
0.10840411E-06
0.11961550E-07
0.28755536E-08
0.66856071E-09
0.18787764E-09
0.79504803E-09
0.14809872E-08
0.16472402E-08
0.13216476E-08
0.80946289E-09
0.37060707E-09
0.12123830E-09
0.54877988E-10
0.98630319E-10
0.17329928E-09
0.23045978E-09
0.24748043E-09
0.22596285E-09
0.17983970E-09
0.12611893E-09
0.76852733E-10
0.40016549E-10
0.18193311E-10
0.92935286E-11
0.97962992E-11
0.15869818E-10
0.23770447E-10
0.30846208E-10
0.35694961E-10
0.37541751E-10
0.36576152E-10
0.33333274E-10
0.28629066E-10
0.23162387E-10
0.17649555E-10
0.12617060E-10
0.84390567E-11
