atomic number =  106
effective nuclear charge =  106
electron count =   36
net charge =   70
basis set = approximate basis set limit (UGBS)      
exchange correlation functional = PW91PW91            
cutoff radius (picometer) =  300
number of shells =   50
prepared by = Thomas A. Manz      
prepared date = July 2010           
net magnetization =    0
density in atomic units:
0.17894816E+06
0.19944133E+03
0.36079918E+02
0.66494293E+01
0.77342898E+00
0.57041954E-01
0.38502275E-02
0.34804270E-03
0.24862395E-04
0.13813338E-05
0.44178807E-06
0.99494571E-07
0.33416448E-07
0.10851974E-06
0.12446851E-06
0.74018857E-07
0.23608953E-07
0.54847593E-08
0.91253920E-08
0.17450049E-07
0.20240162E-07
0.16707251E-07
0.10462903E-07
0.49128128E-08
0.16826618E-08
0.77995022E-09
0.13047423E-08
0.22431874E-08
0.29653158E-08
0.31749523E-08
0.28913252E-08
0.22935915E-08
0.16013405E-08
0.97034769E-09
0.50203258E-09
0.22800821E-09
0.11990653E-09
0.13128901E-09
0.21218179E-09
0.31431727E-09
0.40394735E-09
0.46384732E-09
0.48437382E-09
0.46885462E-09
0.42449544E-09
0.36202263E-09
0.29067973E-09
0.21961623E-09
0.15546116E-09
0.10268814E-09
