atomic number =   77
effective nuclear charge =   77
electron count =    2
net charge =   75
basis set = approximate basis set limit (UGBS)      
exchange correlation functional = PW91PW91            
cutoff radius (picometer) =  300
number of shells =   50
prepared by = Thomas A. Manz      
prepared date = July 2010           
net magnetization =    0
density in atomic units:
0.57860543E+05
0.24759152E-03
0.32539137E-04
0.10541690E-04
0.23530358E-05
0.63788184E-06
0.44898133E-06
0.23877831E-06
0.17797934E-07
0.80499532E-07
0.54027236E-07
0.66094876E-08
0.37826955E-08
0.12884330E-07
0.12521374E-07
0.58951990E-08
0.10319026E-08
0.16325750E-09
0.12116134E-08
0.21464939E-08
0.21756641E-08
0.15412308E-08
0.77927248E-09
0.24083119E-09
0.21126812E-10
0.45018156E-10
0.17427083E-09
0.29514338E-09
0.35628689E-09
0.34607289E-09
0.28433664E-09
0.19968766E-09
0.11857877E-09
0.55496059E-10
0.16974614E-10
0.16465841E-11
0.30021103E-11
0.14152622E-10
0.28923202E-10
0.42161181E-10
0.51138330E-10
0.55030588E-10
0.53903236E-10
0.48865037E-10
0.41269325E-10
0.32579075E-10
0.23860887E-10
0.16036113E-10
0.96530665E-11
0.49822902E-11
