atomic number =   40
effective nuclear charge =   40
electron count =   10
net charge =   30
basis set = approximate basis set limit (UGBS)      
exchange correlation functional = PW91PW91            
cutoff radius (picometer) =  300
number of shells =   50
prepared by = Thomas A. Manz      
prepared date = July 2010           
net magnetization =    0
density in atomic units:
0.81606484E+04
0.83412750E+02
0.64244266E+01
0.36090463E+00
0.19785665E-01
0.81072480E-03
0.30346133E-04
0.18679501E-05
0.12288196E-06
0.11994195E-07
0.49705293E-08
0.10105351E-08
0.47119758E-09
0.11791303E-08
0.12053821E-08
0.64250377E-09
0.17116454E-09
0.45573673E-10
0.11420628E-09
0.19747169E-09
0.20914954E-09
0.15838167E-09
0.89379670E-10
0.35708859E-10
0.95650068E-11
0.68776777E-11
0.16180000E-10
0.26821306E-10
0.33235067E-10
0.33469998E-10
0.28719747E-10
0.21337591E-10
0.13753767E-10
0.74515940E-11
0.32374856E-11
0.11739109E-11
0.77191622E-12
0.14428955E-11
0.26217416E-11
0.38081409E-11
0.47019311E-11
0.51758819E-11
0.51993292E-11
0.48434334E-11
0.42160689E-11
0.34483653E-11
0.26402257E-11
0.18837603E-11
0.12391238E-11
0.74186626E-12
