atomic number =   29
effective nuclear charge =   29
electron count =   28
net charge =    1
basis set = approximate basis set limit (UGBS)      
exchange correlation functional = PW91PW91            
cutoff radius (picometer) =  400
number of shells =   75
prepared by = Thomas A. Manz      
prepared date = July 2010           
net magnetization =    0
density in atomic units:
0.29900632E+04
0.12078775E+03
0.34243065E+02
0.11931421E+02
0.76101933E+01
0.57477908E+01
0.41397414E+01
0.27688775E+01
0.17747234E+01
0.11287272E+01
0.72680551E+00
0.47372550E+00
0.31282225E+00
0.21195042E+00
0.14652194E+00
0.10300988E+00
0.73404312E-01
0.53232931E-01
0.39416552E-01
0.29684737E-01
0.22657571E-01
0.17456099E-01
0.13527117E-01
0.10580952E-01
0.83389590E-02
0.66098617E-02
0.52700951E-02
0.42307074E-02
0.33930205E-02
0.27335510E-02
0.22253271E-02
0.18159912E-02
0.14783804E-02
0.12050838E-02
0.99015364E-03
0.81516424E-03
0.67038601E-03
0.55366807E-03
0.45952556E-03
0.38100450E-03
0.31569722E-03
0.26296914E-03
0.21946007E-03
0.18325038E-03
0.15339143E-03
0.12853758E-03
0.10791280E-03
0.90639551E-04
0.76093129E-04
0.63980711E-04
0.53882173E-04
0.45457713E-04
0.38335071E-04
0.32365206E-04
0.27411930E-04
0.23198634E-04
0.19623929E-04
0.16632217E-04
0.14123656E-04
0.11995156E-04
0.10189106E-04
0.86743967E-05
0.73889978E-05
0.62934573E-05
0.53619369E-05
0.45712786E-05
0.39041238E-05
0.33322103E-05
0.28426282E-05
0.24301141E-05
0.20811613E-05
0.17783667E-05
0.15185532E-05
0.12982586E-05
0.11115129E-05
