atomic number =   69
effective nuclear charge =   69
electron count =   10
net charge =   59
basis set = approximate basis set limit (UGBS)      
exchange correlation functional = PW91PW91            
cutoff radius (picometer) =  300
number of shells =   50
prepared by = Thomas A. Manz      
prepared date = July 2010           
net magnetization =    0
density in atomic units:
0.46979137E+05
0.19174601E+02
0.82057953E-01
0.22076239E-03
0.35812855E-05
0.60806963E-06
0.43627608E-06
0.23228387E-06
0.20209514E-07
0.78770022E-07
0.53362907E-07
0.72529027E-08
0.39834931E-08
0.12656078E-07
0.12388048E-07
0.59741709E-08
0.11636728E-08
0.22631691E-09
0.12003025E-08
0.21105644E-08
0.21557478E-08
0.15477456E-08
0.80191798E-09
0.26499930E-09
0.37263539E-10
0.50679867E-10
0.17215733E-09
0.28970815E-09
0.35127443E-09
0.34360714E-09
0.28484828E-09
0.20250322E-09
0.12256447E-09
0.59538888E-10
0.20294464E-10
0.38607676E-11
0.40821209E-11
0.14284150E-10
0.28406505E-10
0.41332038E-10
0.50299990E-10
0.54355603E-10
0.53515366E-10
0.48789511E-10
0.41468357E-10
0.32993424E-10
0.24409412E-10
0.16642568E-10
0.10245820E-10
0.55096960E-11
