atomic number =   52
effective nuclear charge =   52
electron count =    2
net charge =   50
basis set = approximate basis set limit (UGBS)      
exchange correlation functional = PW91PW91            
cutoff radius (picometer) =  300
number of shells =   50
prepared by = Thomas A. Manz      
prepared date = July 2010           
net magnetization =    0
density in atomic units:
0.16514527E+05
0.84491652E-02
0.50227959E-05
0.23307709E-05
0.55743919E-06
0.14027916E-06
0.10777253E-06
0.54891082E-07
0.43103277E-08
0.19327571E-07
0.12719863E-07
0.15124001E-08
0.93498587E-09
0.31043037E-08
0.29893867E-08
0.13971285E-08
0.24084443E-09
0.40465978E-10
0.29421335E-09
0.51707755E-09
0.52210603E-09
0.36879749E-09
0.18587536E-09
0.57110903E-10
0.49230056E-11
0.11034553E-10
0.42212591E-10
0.71204959E-10
0.85787981E-10
0.83212208E-10
0.68294412E-10
0.47908892E-10
0.28412510E-10
0.13271024E-10
0.40420796E-11
0.38665121E-12
0.73514274E-12
0.34299564E-11
0.69879801E-11
0.10169595E-10
0.12326382E-10
0.13253479E-10
0.12974991E-10
0.11757855E-10
0.99256749E-11
0.78328394E-11
0.57342694E-11
0.38522900E-11
0.23173486E-11
0.11949111E-11
