atomic number =   24
effective nuclear charge =   24
electron count =    2
net charge =   22
basis set = approximate basis set limit (UGBS)      
exchange correlation functional = PW91PW91            
cutoff radius (picometer) =  300
number of shells =   50
prepared by = Thomas A. Manz      
prepared date = July 2010           
net magnetization =    0
density in atomic units:
0.14315898E+04
0.31614411E+01
0.24743780E-01
0.18828167E-03
0.13273815E-05
0.26958389E-08
0.70415807E-08
0.22944611E-08
0.28030250E-09
0.10758084E-08
0.61871530E-09
0.59719618E-10
0.63274844E-10
0.17761886E-09
0.16075660E-09
0.71316092E-10
0.10982372E-10
0.28508541E-11
0.17792103E-10
0.29648114E-10
0.29161236E-10
0.20188178E-10
0.99462400E-11
0.29299226E-11
0.22349960E-12
0.71157544E-12
0.25150661E-11
0.41313146E-11
0.49067070E-11
0.47135347E-11
0.38388862E-11
0.26725579E-11
0.15706619E-11
0.72329875E-12
0.21364194E-12
0.18503924E-13
0.47170899E-13
0.20532022E-12
0.40915500E-12
0.58920479E-12
0.70958864E-12
0.75952970E-12
0.74096003E-12
0.66961687E-12
0.56365524E-12
0.44366296E-12
0.32384693E-12
0.21677277E-12
0.12977396E-12
0.66407973E-13
