atomic number =   77
effective nuclear charge =   77
electron count =   36
net charge =   41
basis set = approximate basis set limit (UGBS)      
exchange correlation functional = PW91PW91            
cutoff radius (picometer) =  300
number of shells =   50
prepared by = Thomas A. Manz      
prepared date = July 2010           
net magnetization =    0
density in atomic units:
0.69131492E+05
0.24057455E+03
0.37039345E+02
0.13574816E+02
0.58873620E+01
0.18075515E+01
0.47052747E+00
0.12326296E+00
0.29944552E-01
0.72226566E-02
0.16442139E-02
0.34262796E-03
0.78376463E-04
0.17786884E-04
0.42862498E-05
0.11055013E-05
0.28205642E-06
0.77701493E-07
0.23543592E-07
0.11027230E-07
0.73155859E-08
0.46082551E-08
0.22540405E-08
0.71934603E-09
0.14584448E-09
0.27375902E-09
0.68452177E-09
0.10433095E-08
0.12057932E-08
0.11449302E-08
0.92888947E-09
0.64768968E-09
0.38442266E-09
0.18255431E-09
0.61210925E-10
0.14642515E-10
0.21259966E-10
0.58627853E-10
0.10683519E-09
0.14936589E-09
0.17758041E-09
0.18902450E-09
0.18391445E-09
0.16615698E-09
0.14008998E-09
0.11065245E-09
0.81240348E-10
0.54912037E-10
0.33461622E-10
0.17779410E-10
