atomic number =   47
effective nuclear charge =   47
electron count =   46
net charge =    1
basis set = approximate basis set limit (UGBS)      
exchange correlation functional = PW91PW91            
cutoff radius (picometer) =  500
number of shells =  100
prepared by = Thomas A. Manz      
prepared date = July 2010           
net magnetization =    0
density in atomic units:
0.94938820E+05
0.29308383E+03
0.79395233E+02
0.39059898E+02
0.15053405E+02
0.64686050E+01
0.36104028E+01
0.27047927E+01
0.22604656E+01
0.18390354E+01
0.14326903E+01
0.10936140E+01
0.80865824E+00
0.58595461E+00
0.43058369E+00
0.31726316E+00
0.23126131E+00
0.17077506E+00
0.12714034E+00
0.94671912E-01
0.71582131E-01
0.54910272E-01
0.42145412E-01
0.32526918E-01
0.25361579E-01
0.19838965E-01
0.15580073E-01
0.12342080E-01
0.97806714E-02
0.77946791E-02
0.62522646E-02
0.50133029E-02
0.40410655E-02
0.32703548E-02
0.26519105E-02
0.21501696E-02
0.17450250E-02
0.14196164E-02
0.11603103E-02
0.94826106E-03
0.77617838E-03
0.63656742E-03
0.52233139E-03
0.43131053E-03
0.35638272E-03
0.29347843E-03
0.24247961E-03
0.20135658E-03
0.16692538E-03
0.13849417E-03
0.11499825E-03
0.95423871E-04
0.79429061E-04
0.66256667E-04
0.55253229E-04
0.46059806E-04
0.38363476E-04
0.31974472E-04
0.26679456E-04
0.22289307E-04
0.18621478E-04
0.15561249E-04
0.13021948E-04
0.10895495E-04
0.91170950E-05
0.76523902E-05
0.64239130E-05
0.53832778E-05
0.45129195E-05
0.37818254E-05
0.31766162E-05
0.26698415E-05
0.22425970E-05
0.18863474E-05
0.15845483E-05
0.13307857E-05
0.11184331E-05
0.93946119E-06
0.78973460E-06
0.66486473E-06
0.55889780E-06
0.46945263E-06
0.39421394E-06
0.33109751E-06
0.27862242E-06
0.23478134E-06
0.19773681E-06
0.16663756E-06
0.14047689E-06
0.11828723E-06
0.99858340E-07
0.84292950E-07
0.71128177E-07
0.60178635E-07
0.50924626E-07
0.43135071E-07
0.36629547E-07
0.31104715E-07
0.26425431E-07
0.22499577E-07
