atomic number =   40
effective nuclear charge =   40
electron count =   18
net charge =   22
basis set = approximate basis set limit (UGBS)      
exchange correlation functional = PW91PW91            
cutoff radius (picometer) =  300
number of shells =   50
prepared by = Thomas A. Manz      
prepared date = July 2010           
net magnetization =    0
density in atomic units:
0.83340068E+04
0.88079857E+02
0.17634064E+02
0.10514944E+02
0.51646757E+01
0.19194946E+01
0.64083582E+00
0.21672720E+00
0.68830490E-01
0.21640554E-01
0.65051853E-02
0.18698314E-02
0.58890780E-03
0.18291287E-03
0.57262230E-04
0.17686372E-04
0.51372449E-05
0.15360225E-05
0.43129009E-06
0.11803335E-06
0.32734313E-07
0.94819903E-08
0.30208764E-08
0.10970989E-08
0.49778531E-09
0.32329370E-09
0.28008335E-09
0.26342356E-09
0.23694574E-09
0.19513677E-09
0.14504839E-09
0.95372092E-10
0.54388223E-10
0.25321930E-10
0.89286547E-11
0.32841503E-11
0.48807716E-11
0.10462745E-10
0.17288174E-10
0.23146984E-10
0.26929313E-10
0.28370913E-10
0.27475123E-10
0.24858452E-10
0.21075350E-10
0.16825250E-10
0.12565172E-10
0.87306828E-11
0.55673135E-11
0.32116386E-11
