atomic number =   35
effective nuclear charge =   35
electron count =    2
net charge =   33
basis set = approximate basis set limit (UGBS)      
exchange correlation functional = PW91PW91            
cutoff radius (picometer) =  300
number of shells =   50
prepared by = Thomas A. Manz      
prepared date = July 2010           
net magnetization =    0
density in atomic units:
0.45979048E+04
0.39226809E+00
0.29900548E-03
0.11296485E-05
0.10769206E-06
0.26076540E-07
0.22547495E-07
0.10866278E-07
0.93415364E-09
0.41053982E-08
0.26222875E-08
0.29729186E-09
0.20949191E-09
0.66687372E-09
0.63244743E-09
0.29180131E-09
0.48925797E-10
0.91772423E-11
0.64227228E-10
0.11131283E-09
0.11162730E-09
0.78436709E-10
0.39296250E-10
0.11940960E-10
0.99556637E-12
0.24556177E-11
0.91899483E-11
0.15388357E-10
0.18468713E-10
0.17865839E-10
0.14632677E-10
0.10243426E-10
0.60595522E-11
0.28191980E-11
0.85147590E-12
0.79234999E-13
0.16358139E-12
0.74819480E-12
0.15146382E-11
0.21979209E-11
0.26589011E-11
0.28555424E-11
0.27926873E-11
0.25291277E-11
0.21330522E-11
0.16821279E-11
0.12304507E-11
0.82575591E-12
0.49605822E-12
0.25520729E-12
