atomic number =   17
effective nuclear charge =   17
electron count =   12
net charge =    5
basis set = approximate basis set limit (UGBS)      
exchange correlation functional = PW91PW91            
cutoff radius (picometer) =  300
number of shells =   50
prepared by = Thomas A. Manz      
prepared date = July 2010           
net magnetization =    0
density in atomic units:
0.61126581E+03
0.33582508E+02
0.17058033E+02
0.83632660E+01
0.36245396E+01
0.13921467E+01
0.56476814E+00
0.28093624E+00
0.17009629E+00
0.12336272E+00
0.96397638E-01
0.76479651E-01
0.61085224E-01
0.47741026E-01
0.36835980E-01
0.27900277E-01
0.20805126E-01
0.15584775E-01
0.11516850E-01
0.84613627E-02
0.62003490E-02
0.45280778E-02
0.33098073E-02
0.24148403E-02
0.17559377E-02
0.12735537E-02
0.92413340E-03
0.67556265E-03
0.49067702E-03
0.35547957E-03
0.25848625E-03
0.18755026E-03
0.13652124E-03
0.99162331E-04
0.72005285E-04
0.52538431E-04
0.38430051E-04
0.28063463E-04
0.20396346E-04
0.14882417E-04
0.10899529E-04
0.79411384E-05
0.58067694E-05
0.42576776E-05
0.31172870E-05
0.22905690E-05
0.16817677E-05
0.12360192E-05
0.90955785E-06
0.67208691E-06
