atomic number =   73
effective nuclear charge =   73
electron count =   68
net charge =    5
basis set = approximate basis set limit (UGBS)      
exchange correlation functional = PW91PW91            
cutoff radius (picometer) =  300
number of shells =   50
prepared by = Thomas A. Manz      
prepared date = July 2010           
net magnetization =    0
density in atomic units:
0.58470031E+05
0.25582246E+03
0.61676235E+02
0.35148121E+02
0.20105591E+02
0.91508446E+01
0.42931037E+01
0.23924003E+01
0.14836259E+01
0.99029875E+00
0.66522253E+00
0.44182733E+00
0.29845712E+00
0.19759969E+00
0.13021767E+00
0.84678039E-01
0.54354079E-01
0.35467364E-01
0.22849798E-01
0.14678551E-01
0.94429916E-02
0.60722372E-02
0.39248909E-02
0.25418347E-02
0.16440150E-02
0.10638428E-02
0.69038582E-03
0.45362179E-03
0.29591282E-03
0.19239156E-03
0.12572152E-03
0.81869854E-04
0.53508615E-04
0.34853056E-04
0.22672473E-04
0.14847693E-04
0.97546972E-05
0.63984717E-05
0.41738822E-05
0.27383210E-05
0.18073252E-05
0.11848955E-05
0.78045349E-06
0.51581583E-06
0.33988493E-06
0.22473395E-06
0.14818087E-06
0.97662891E-07
0.64356918E-07
0.42597261E-07
