atomic number =   57
effective nuclear charge =   57
electron count =   36
net charge =   21
basis set = approximate basis set limit (UGBS)      
exchange correlation functional = PW91PW91            
cutoff radius (picometer) =  300
number of shells =   50
prepared by = Thomas A. Manz      
prepared date = July 2010           
net magnetization =    0
density in atomic units:
0.26269357E+05
0.17280658E+03
0.59628578E+02
0.14788710E+02
0.59029422E+01
0.35138283E+01
0.19914823E+01
0.10294161E+01
0.47657236E+00
0.20955475E+00
0.86732820E-01
0.34352247E-01
0.14319106E-01
0.57900106E-02
0.23241870E-02
0.91609772E-03
0.34933636E-03
0.13925367E-03
0.54435553E-04
0.21344307E-04
0.84588119E-05
0.33564377E-05
0.13396117E-05
0.53178388E-06
0.20814763E-06
0.81145124E-07
0.32222339E-07
0.13717497E-07
0.62563434E-08
0.31791962E-08
0.18254670E-08
0.11312539E-08
0.72702921E-09
0.45972823E-09
0.27626590E-09
0.15483351E-09
0.80010963E-10
0.40556985E-10
0.26972223E-10
0.30170311E-10
0.41544070E-10
0.55032187E-10
0.66058936E-10
0.72475664E-10
0.73684295E-10
0.70116538E-10
0.62855644E-10
0.53294216E-10
0.42787152E-10
0.32578541E-10
