atomic number =   70
effective nuclear charge =   70
electron count =   46
net charge =   24
basis set = approximate basis set limit (UGBS)      
exchange correlation functional = PW91PW91            
cutoff radius (picometer) =  300
number of shells =   50
prepared by = Thomas A. Manz      
prepared date = July 2010           
net magnetization =    0
density in atomic units:
0.51059738E+05
0.23613904E+03
0.47493481E+02
0.21084280E+02
0.13226267E+02
0.61438212E+01
0.24469399E+01
0.96232760E+00
0.35996714E+00
0.13532637E+00
0.49478576E-01
0.17637325E-01
0.68201125E-02
0.26207620E-02
0.10221992E-02
0.39692581E-03
0.14967954E-03
0.59083057E-04
0.22968077E-04
0.90864387E-05
0.37275486E-05
0.15820434E-05
0.69575123E-06
0.31030987E-06
0.13691013E-06
0.58799021E-07
0.24359801E-07
0.99464037E-08
0.39893324E-08
0.17690323E-08
0.10206153E-08
0.74578882E-09
0.59389732E-09
0.46097148E-09
0.33937228E-09
0.24298841E-09
0.17896089E-09
0.14631306E-09
0.13889478E-09
0.14736856E-09
0.16194852E-09
0.17566258E-09
0.18336761E-09
0.18302451E-09
0.17474103E-09
0.15994452E-09
0.14052777E-09
0.11887982E-09
0.97049452E-10
0.76908951E-10
