atomic number =   77
effective nuclear charge =   77
electron count =   68
net charge =    9
basis set = approximate basis set limit (UGBS)      
exchange correlation functional = PW91PW91            
cutoff radius (picometer) =  300
number of shells =   50
prepared by = Thomas A. Manz      
prepared date = July 2010           
net magnetization =    0
density in atomic units:
0.69287258E+05
0.26838861E+03
0.68961594E+02
0.40372917E+02
0.20094433E+02
0.82691317E+01
0.38147268E+01
0.21676061E+01
0.13398316E+01
0.86017829E+00
0.54130286E+00
0.33163625E+00
0.20654836E+00
0.12561589E+00
0.76120302E-01
0.45585971E-01
0.26957218E-01
0.16306363E-01
0.97340243E-02
0.57967817E-02
0.34581316E-02
0.20615861E-02
0.12362421E-02
0.74273185E-03
0.44570767E-03
0.26760818E-03
0.16131179E-03
0.98665172E-04
0.59853170E-04
0.36158148E-04
0.21958362E-04
0.13267769E-04
0.80412856E-05
0.48505881E-05
0.29204321E-05
0.17720656E-05
0.10809185E-05
0.65968572E-06
0.40131684E-06
0.24697221E-06
0.15388359E-06
0.95794825E-07
0.60358786E-07
0.38416527E-07
0.24517048E-07
0.15772034E-07
0.10124045E-07
0.64957666E-08
0.41472799E-08
0.26413172E-08
