atomic number =   45
effective nuclear charge =   45
electron count =    4
net charge =   41
basis set = approximate basis set limit (UGBS)      
exchange correlation functional = PW91PW91            
cutoff radius (picometer) =  300
number of shells =   50
prepared by = Thomas A. Manz      
prepared date = July 2010           
net magnetization =    0
density in atomic units:
0.11592729E+05
0.22631102E+02
0.11556276E+01
0.37567947E-01
0.12363392E-02
0.28764380E-04
0.33666905E-06
0.29273989E-07
0.68832007E-08
0.19192699E-07
0.10836506E-07
0.10965829E-08
0.10700905E-08
0.30113552E-08
0.27401588E-08
0.12236330E-08
0.19252711E-09
0.48309218E-10
0.29936453E-09
0.50093568E-09
0.49393661E-09
0.34269274E-09
0.16927582E-09
0.50148045E-10
0.39445031E-11
0.11946920E-10
0.42370302E-10
0.69744599E-10
0.82932855E-10
0.79733123E-10
0.64989222E-10
0.45275117E-10
0.26629029E-10
0.12282137E-10
0.36410024E-11
0.32153693E-12
0.79231955E-12
0.34582586E-11
0.69023541E-11
0.99483104E-11
0.11987461E-10
0.12834872E-10
0.12526831E-10
0.11321998E-10
0.95333437E-11
0.75052560E-11
0.54796302E-11
0.36696171E-11
0.21979064E-11
0.11253636E-11
