atomic number =   74
effective nuclear charge =   74
electron count =   28
net charge =   46
basis set = approximate basis set limit (UGBS)      
exchange correlation functional = PW91PW91            
cutoff radius (picometer) =  300
number of shells =   50
prepared by = Thomas A. Manz      
prepared date = July 2010           
net magnetization =    0
density in atomic units:
0.60534559E+05
0.22525929E+03
0.33714584E+02
0.27045226E+01
0.18368016E+00
0.92792390E-02
0.42667371E-03
0.30761978E-04
0.23600207E-05
0.30328945E-06
0.11794663E-06
0.18101218E-07
0.10963937E-07
0.29294082E-07
0.28248001E-07
0.13834688E-07
0.30449789E-08
0.88253305E-09
0.29819263E-08
0.49482280E-08
0.49936637E-08
0.35888545E-08
0.18867816E-08
0.66248468E-09
0.13921857E-09
0.16257910E-09
0.43134143E-09
0.69209000E-09
0.82641588E-09
0.80410673E-09
0.66667183E-09
0.47610155E-09
0.29153349E-09
0.14589804E-09
0.54827292E-10
0.16133601E-10
0.15733762E-10
0.38340588E-10
0.70076889E-10
0.99183328E-10
0.11931847E-09
0.12829132E-09
0.12602015E-09
0.11487276E-09
0.97797152E-10
0.78065873E-10
0.58103397E-10
0.40001287E-10
0.25070538E-10
0.13974066E-10
