atomic number =   67
effective nuclear charge =   67
electron count =   12
net charge =   55
basis set = approximate basis set limit (UGBS)      
exchange correlation functional = PW91PW91            
cutoff radius (picometer) =  300
number of shells =   50
prepared by = Thomas A. Manz      
prepared date = July 2010           
net magnetization =    0
density in atomic units:
0.43858648E+05
0.40303997E+02
0.64591713E+01
0.73010588E+00
0.59941381E-01
0.33501890E-02
0.19195674E-03
0.14806600E-04
0.58927037E-06
0.93173448E-07
0.77682323E-07
0.91314956E-08
0.10033787E-07
0.26176453E-07
0.23569077E-07
0.10554269E-07
0.17458902E-08
0.50474203E-09
0.26334059E-08
0.43427431E-08
0.42731720E-08
0.29705887E-08
0.14777286E-08
0.44997103E-09
0.48558678E-10
0.11415472E-09
0.37414513E-09
0.60911659E-09
0.72264505E-09
0.69509865E-09
0.56761246E-09
0.39683479E-09
0.23497515E-09
0.11000250E-09
0.34328696E-10
0.48279939E-11
0.83349543E-11
0.31065091E-10
0.60739330E-10
0.87101604E-10
0.10483440E-09
0.11230154E-09
0.10971959E-09
0.99319157E-10
0.83805171E-10
0.66156525E-10
0.48492245E-10
0.32655427E-10
0.19741082E-10
0.10298851E-10
