atomic number =   75
effective nuclear charge =   75
electron count =   28
net charge =   47
basis set = approximate basis set limit (UGBS)      
exchange correlation functional = PW91PW91            
cutoff radius (picometer) =  300
number of shells =   50
prepared by = Thomas A. Manz      
prepared date = July 2010           
net magnetization =    0
density in atomic units:
0.63167625E+05
0.22694217E+03
0.32008572E+02
0.24129946E+01
0.15485193E+00
0.74109253E-02
0.31889899E-03
0.21702872E-04
0.16192004E-05
0.26367078E-06
0.11713693E-06
0.16548420E-07
0.10242303E-07
0.29046715E-07
0.27892256E-07
0.13382655E-07
0.26965530E-08
0.69827455E-09
0.29064759E-08
0.49016595E-08
0.49343170E-08
0.35148024E-08
0.18138041E-08
0.60445893E-09
0.10113173E-09
0.14124270E-09
0.41991630E-09
0.68412953E-09
0.81790597E-09
0.79377543E-09
0.65468192E-09
0.46368909E-09
0.28004921E-09
0.13631864E-09
0.47525706E-10
0.11009036E-10
0.12369345E-10
0.36207596E-10
0.68657718E-10
0.98025865E-10
0.11807590E-09
0.12685514E-09
0.12437015E-09
0.11304774E-09
0.95865621E-10
0.76140962E-10
0.56269375E-10
0.38343117E-10
0.23633160E-10
0.12793714E-10
