atomic number =   79
effective nuclear charge =   79
electron count =   46
net charge =   33
basis set = approximate basis set limit (UGBS)      
exchange correlation functional = PW91PW91            
cutoff radius (picometer) =  300
number of shells =   50
prepared by = Thomas A. Manz      
prepared date = July 2010           
net magnetization =    0
density in atomic units:
0.75014539E+05
0.24968385E+03
0.48366959E+02
0.26877354E+02
0.12233880E+02
0.39574163E+01
0.11355021E+01
0.33441344E+00
0.93359746E-01
0.26448451E-01
0.72577409E-02
0.18836637E-02
0.53546438E-03
0.15192089E-03
0.45236851E-04
0.14014653E-04
0.42586289E-05
0.13487102E-05
0.39657780E-06
0.10984283E-06
0.29848430E-07
0.85125498E-08
0.26995215E-08
0.88300184E-09
0.38488443E-09
0.49640497E-09
0.84275442E-09
0.11595100E-08
0.13202993E-08
0.12881365E-08
0.11071860E-08
0.85022106E-09
0.59114974E-09
0.37382500E-09
0.22292369E-09
0.14079586E-09
0.11253712E-09
0.12001682E-09
0.14580133E-09
0.17440226E-09
0.19593484E-09
0.20595109E-09
0.20290852E-09
0.18864793E-09
0.16613491E-09
0.13929494E-09
0.11114379E-09
0.84553108E-10
0.61445363E-10
0.43087495E-10
