atomic number =   17
effective nuclear charge =   17
electron count =   12
net charge =    5
basis set = approximate basis set limit (UGBS)      
exchange correlation functional = PW91PW91            
cutoff radius (picometer) =  400
number of shells =   75
prepared by = Thomas A. Manz      
prepared date = July 2010           
net magnetization =    0
density in atomic units:
0.61126581E+03
0.41323990E+02
0.20698925E+02
0.11882318E+02
0.58595538E+01
0.25620258E+01
0.11304491E+01
0.52241910E+00
0.27198067E+00
0.17271000E+00
0.12813826E+00
0.10260238E+00
0.84009156E-01
0.68896405E-01
0.55900428E-01
0.44689439E-01
0.35163432E-01
0.27353892E-01
0.21175226E-01
0.16313260E-01
0.12518123E-01
0.95534176E-02
0.72444463E-02
0.54886579E-02
0.41543562E-02
0.31386546E-02
0.23695459E-02
0.17914965E-02
0.13439045E-02
0.10078842E-02
0.76263171E-03
0.57640992E-03
0.43250681E-03
0.32384574E-03
0.24440969E-03
0.18446444E-03
0.13856853E-03
0.10445435E-03
0.79096550E-04
0.59650178E-04
0.44822700E-04
0.33864118E-04
0.25603767E-04
0.19331861E-04
0.14623337E-04
0.11063550E-04
0.83810255E-05
0.63476759E-05
0.47979738E-05
0.36334470E-05
0.27562223E-05
0.20961454E-05
0.15926178E-05
0.12118687E-05
0.92692983E-06
0.70814036E-06
0.54056591E-06
0.41396052E-06
0.31802057E-06
0.24443125E-06
0.18792922E-06
0.14500797E-06
0.11200575E-06
0.86482920E-07
0.66792147E-07
0.51614368E-07
0.39977660E-07
0.30911668E-07
0.23862423E-07
0.18451715E-07
0.14290947E-07
0.11006301E-07
0.84481551E-08
0.64779271E-08
0.49637725E-08
