atomic number =   71
effective nuclear charge =   71
electron count =   30
net charge =   41
basis set = approximate basis set limit (UGBS)      
exchange correlation functional = PW91PW91            
cutoff radius (picometer) =  300
number of shells =   50
prepared by = Thomas A. Manz      
prepared date = July 2010           
net magnetization =    0
density in atomic units:
0.53386871E+05
0.22164684E+03
0.39960560E+02
0.62342563E+01
0.19077511E+01
0.61474687E+00
0.17805141E+00
0.51667310E-01
0.13779745E-01
0.35768577E-02
0.87016879E-03
0.19652628E-03
0.48814349E-04
0.11834546E-04
0.29077808E-05
0.72815533E-06
0.17984959E-06
0.52690766E-07
0.20319160E-07
0.12011264E-07
0.83936254E-08
0.53218461E-08
0.27242171E-08
0.10155660E-08
0.28652516E-09
0.28400943E-09
0.60982952E-09
0.93519947E-09
0.11041433E-08
0.10741988E-08
0.89574070E-09
0.64717259E-09
0.40500953E-09
0.21213664E-09
0.89804469E-10
0.35947790E-10
0.32685871E-10
0.60285263E-10
0.10060840E-09
0.13817887E-09
0.16435575E-09
0.17596997E-09
0.17305941E-09
0.15827011E-09
0.13547531E-09
0.10901931E-09
0.82048160E-10
0.57478342E-10
0.37030802E-10
0.21683091E-10
