atomic number =   53
effective nuclear charge =   53
electron count =   12
net charge =   41
basis set = approximate basis set limit (UGBS)      
exchange correlation functional = PW91PW91            
cutoff radius (picometer) =  300
number of shells =   50
prepared by = Thomas A. Manz      
prepared date = July 2010           
net magnetization =    0
density in atomic units:
0.20582236E+05
0.58301426E+02
0.82907162E+01
0.23502941E+01
0.48326159E+00
0.71814045E-01
0.95432037E-02
0.13780039E-02
0.18239106E-03
0.25017991E-04
0.34074453E-05
0.39405063E-06
0.44682071E-07
0.93196153E-08
0.63157368E-08
0.29269565E-08
0.49917215E-09
0.12245473E-09
0.70810419E-09
0.11943138E-08
0.11862846E-08
0.82948265E-09
0.41452344E-09
0.12621808E-09
0.11642242E-10
0.27687278E-10
0.98902872E-10
0.16414095E-09
0.19629177E-09
0.18957745E-09
0.15516632E-09
0.10860454E-09
0.64298358E-10
0.29999270E-10
0.91802069E-11
0.10122193E-11
0.19068597E-11
0.80907139E-11
0.16200995E-10
0.23422103E-10
0.28291135E-10
0.30341847E-10
0.29691336E-10
0.26892669E-10
0.22688268E-10
0.17899597E-10
0.13106252E-10
0.88045751E-11
0.53032479E-11
0.27427136E-11
