atomic number =   38
effective nuclear charge =   38
electron count =   28
net charge =   10
basis set = approximate basis set limit (UGBS)      
exchange correlation functional = PW91PW91            
cutoff radius (picometer) =  300
number of shells =   50
prepared by = Thomas A. Manz      
prepared date = July 2010           
net magnetization =    0
density in atomic units:
0.70776899E+04
0.10810468E+03
0.32405994E+02
0.19500246E+02
0.10435545E+02
0.45576057E+01
0.18673214E+01
0.78507584E+00
0.31980613E+00
0.13212350E+00
0.53713620E-01
0.21592846E-01
0.93773333E-02
0.40547145E-02
0.17785825E-02
0.77799289E-03
0.33430115E-03
0.15032743E-03
0.66913679E-04
0.30081635E-04
0.13741897E-04
0.63228908E-05
0.29366004E-05
0.13595085E-05
0.62067875E-06
0.27977657E-06
0.12536289E-06
0.57279468E-07
0.26017325E-07
0.11959808E-07
0.57110472E-08
0.28188032E-08
0.14568872E-08
0.77817353E-09
0.42736456E-09
0.24136806E-09
0.13832605E-09
0.79495223E-10
0.45686063E-10
0.27026445E-10
0.16871601E-10
0.11330968E-10
0.84346549E-11
0.68570982E-11
0.58611518E-11
0.51127553E-11
0.44358189E-11
0.37777967E-11
0.31499837E-11
0.25782122E-11
