atomic number =   29
effective nuclear charge =   29
electron count =    4
net charge =   25
basis set = approximate basis set limit (UGBS)      
exchange correlation functional = PW91PW91            
cutoff radius (picometer) =  300
number of shells =   50
prepared by = Thomas A. Manz      
prepared date = July 2010           
net magnetization =    0
density in atomic units:
0.27998647E+04
0.20526133E+02
0.54818606E+01
0.91572356E+00
0.13152754E+00
0.14916881E-01
0.16173269E-02
0.20270661E-03
0.23906956E-04
0.30949368E-05
0.42305555E-06
0.46900400E-07
0.33579426E-08
0.62767053E-09
0.96798258E-09
0.51095772E-09
0.80743634E-10
0.26168298E-10
0.15313413E-09
0.25098837E-09
0.24475094E-09
0.16814486E-09
0.81950238E-10
0.23601999E-10
0.17078671E-11
0.65187469E-11
0.22060449E-10
0.35709463E-10
0.42065230E-10
0.40166263E-10
0.32535634E-10
0.22514286E-10
0.13126292E-10
0.59636688E-11
0.17084641E-11
0.13587094E-12
0.45765811E-12
0.18622018E-11
0.36326413E-11
0.51776101E-11
0.61964262E-11
0.66006588E-11
0.64189877E-11
0.57824873E-11
0.48537147E-11
0.38085247E-11
0.27704848E-11
0.18461560E-11
0.10982460E-11
0.55633769E-12
