atomic number =   17
effective nuclear charge =   17
electron count =    2
net charge =   15
basis set = approximate basis set limit (UGBS)      
exchange correlation functional = PW91PW91            
cutoff radius (picometer) =  300
number of shells =   50
prepared by = Thomas A. Manz      
prepared date = July 2010           
net magnetization =    0
density in atomic units:
0.54977716E+03
0.92099638E+01
0.30177900E+00
0.97334199E-02
0.35112130E-03
0.96067961E-05
0.28341077E-06
0.16915399E-07
0.50324567E-09
0.21411421E-09
0.19812849E-09
0.24450280E-10
0.17234842E-10
0.55457066E-10
0.52639979E-10
0.24116233E-10
0.39228165E-11
0.84782924E-12
0.56588787E-11
0.96452325E-11
0.95861652E-11
0.66806634E-11
0.33089740E-11
0.98147033E-12
0.76024846E-13
0.23261463E-12
0.82990532E-12
0.13678084E-11
0.16273107E-11
0.15647892E-11
0.12750795E-11
0.88769037E-12
0.52148889E-12
0.23987705E-12
0.70611519E-13
0.60441264E-14
0.15973183E-13
0.68967239E-13
0.13709814E-12
0.19720014E-12
0.23732652E-12
0.25389605E-12
0.24758781E-12
0.22365021E-12
0.18819775E-12
0.14805975E-12
0.10801185E-12
0.72244809E-13
0.43199246E-13
0.22064649E-13
