atomic number =   36
effective nuclear charge =   36
electron count =   18
net charge =   18
basis set = approximate basis set limit (UGBS)      
exchange correlation functional = PW91PW91            
cutoff radius (picometer) =  300
number of shells =   50
prepared by = Thomas A. Manz      
prepared date = July 2010           
net magnetization =    0
density in atomic units:
0.59461616E+04
0.91523193E+02
0.15518661E+02
0.86267233E+01
0.53090229E+01
0.25340085E+01
0.10752429E+01
0.45141280E+00
0.17855304E+00
0.69861233E-01
0.26333254E-01
0.96248323E-02
0.37714082E-02
0.14479822E-02
0.55685750E-03
0.21182916E-03
0.78296580E-04
0.30487383E-04
0.11726676E-04
0.45711458E-05
0.18217576E-05
0.73438463E-06
0.29943004E-06
0.12110551E-06
0.47532161E-07
0.17889965E-07
0.63855490E-08
0.21865516E-08
0.67932104E-09
0.19728659E-09
0.65083383E-10
0.31865448E-10
0.21435938E-10
0.14090015E-10
0.76523154E-11
0.32967760E-11
0.15665197E-11
0.21821375E-11
0.43808806E-11
0.71636351E-11
0.97333279E-11
0.11628002E-10
0.12560231E-10
0.12535194E-10
0.11697306E-10
0.10285171E-10
0.85451542E-11
0.67020660E-11
0.49543802E-11
0.34392645E-11
