atomic number =    3
effective nuclear charge =    3
electron count =    2
net charge =    1
basis set = approximate basis set limit (UGBS)      
exchange correlation functional = PW91PW91            
cutoff radius (picometer) =  300
number of shells =   50
prepared by = Thomas A. Manz      
prepared date = July 2010           
net magnetization =    0
density in atomic units:
0.85070066E+01
0.44888954E+01
0.24682252E+01
0.13587221E+01
0.75804090E+00
0.40787661E+00
0.22429630E+00
0.12869065E+00
0.73165253E-01
0.42174220E-01
0.24046777E-01
0.13628574E-01
0.80614612E-02
0.47305180E-02
0.28019529E-02
0.16560471E-02
0.97318069E-03
0.58817933E-03
0.35218155E-03
0.21104577E-03
0.12700055E-03
0.76506003E-04
0.46390105E-04
0.28176561E-04
0.17076845E-04
0.10336359E-04
0.62680629E-05
0.38485887E-05
0.23400310E-05
0.14154587E-05
0.86017945E-06
0.52024939E-06
0.31578571E-06
0.19082974E-06
0.11513788E-06
0.69997164E-07
0.42731461E-07
0.26058389E-07
0.15800083E-07
0.96654951E-08
0.59676037E-08
0.36691987E-08
0.22762299E-08
0.14221193E-08
0.88666846E-09
0.55465993E-09
0.34445444E-09
0.21212523E-09
0.12940650E-09
0.78958368E-10
