atomic number =   73
effective nuclear charge =   73
electron count =    4
net charge =   69
basis set = approximate basis set limit (UGBS)      
exchange correlation functional = PW91PW91            
cutoff radius (picometer) =  300
number of shells =   50
prepared by = Thomas A. Manz      
prepared date = July 2010           
net magnetization =    0
density in atomic units:
0.55924988E+05
0.45680103E+01
0.12062713E-01
0.14638677E-04
0.30342978E-05
0.71439666E-06
0.55246340E-06
0.27928479E-06
0.22367587E-07
0.99420383E-07
0.65109404E-07
0.76908160E-08
0.48628706E-08
0.16005622E-07
0.15370350E-07
0.71667507E-08
0.12296708E-08
0.21135985E-09
0.15222308E-08
0.26677973E-08
0.26900175E-08
0.18982353E-08
0.95557773E-09
0.29298361E-09
0.25111222E-10
0.57363378E-10
0.21835542E-09
0.36778169E-09
0.44267884E-09
0.42917378E-09
0.35210099E-09
0.24685182E-09
0.14634634E-09
0.68291171E-10
0.20763127E-10
0.19758923E-11
0.38231063E-11
0.17749632E-10
0.36119250E-10
0.52526410E-10
0.63644250E-10
0.68418424E-10
0.66953158E-10
0.60673043E-10
0.51202806E-10
0.40401918E-10
0.29568709E-10
0.19860853E-10
0.11942817E-10
0.61548518E-11
