atomic number =   77
effective nuclear charge =   77
electron count =   46
net charge =   31
basis set = approximate basis set limit (UGBS)      
exchange correlation functional = PW91PW91            
cutoff radius (picometer) =  300
number of shells =   50
prepared by = Thomas A. Manz      
prepared date = July 2010           
net magnetization =    0
density in atomic units:
0.69190766E+05
0.24833725E+03
0.47123474E+02
0.25861134E+02
0.12750999E+02
0.44810004E+01
0.13884505E+01
0.43822762E+00
0.13137305E+00
0.39849415E-01
0.11700647E-01
0.32749439E-02
0.10041675E-02
0.30742527E-03
0.97655444E-04
0.31657106E-04
0.99333538E-05
0.32297980E-05
0.98465114E-06
0.28764100E-06
0.82606569E-07
0.23585137E-07
0.66458488E-08
0.16156886E-08
0.30147831E-09
0.30128941E-09
0.69530814E-09
0.10583969E-08
0.12360800E-08
0.11978827E-08
0.10044690E-08
0.73925960E-09
0.48123777E-09
0.27379660E-09
0.13865945E-09
0.74117913E-10
0.62335158E-10
0.83447110E-10
0.11916083E-09
0.15383210E-09
0.17831465E-09
0.18924347E-09
0.18584539E-09
0.17082985E-09
0.14776132E-09
0.12084100E-09
0.93225878E-10
0.67759173E-10
0.46269089E-10
0.29801508E-10
