atomic number =   25
effective nuclear charge =   25
electron count =   18
net charge =    7
basis set = approximate basis set limit (UGBS)      
exchange correlation functional = PW91PW91            
cutoff radius (picometer) =  300
number of shells =   50
prepared by = Thomas A. Manz      
prepared date = July 2010           
net magnetization =    0
density in atomic units:
0.18823285E+04
0.72805008E+02
0.21483379E+02
0.56679015E+01
0.27218423E+01
0.20514677E+01
0.15550067E+01
0.10945070E+01
0.71277344E+00
0.44710484E+00
0.26867497E+00
0.15697551E+00
0.94051123E-01
0.55297345E-01
0.32559715E-01
0.19027187E-01
0.11013857E-01
0.65483763E-02
0.38502242E-02
0.22630820E-02
0.13349724E-02
0.78818080E-03
0.46885997E-03
0.27984989E-03
0.16709296E-03
0.99969482E-04
0.60138002E-04
0.36758585E-04
0.22306518E-04
0.13493298E-04
0.82082843E-05
0.49686682E-05
0.30159481E-05
0.18199247E-05
0.10943365E-05
0.66169429E-06
0.40088537E-06
0.24201984E-06
0.14487807E-06
0.87240998E-07
0.52862447E-07
0.31764966E-07
0.19190995E-07
0.11641603E-07
0.70359767E-08
0.42705004E-08
0.25840872E-08
0.15634926E-08
0.94760533E-09
0.57858357E-09
