atomic number =   79
effective nuclear charge =   79
electron count =   78
net charge =    1
basis set = approximate basis set limit (UGBS)      
exchange correlation functional = PW91PW91            
cutoff radius (picometer) =  300
number of shells =   50
prepared by = Thomas A. Manz      
prepared date = July 2010           
net magnetization =    0
density in atomic units:
0.75133680E+05
0.27456360E+03
0.74649483E+02
0.42980392E+02
0.19705376E+02
0.78372517E+01
0.38969114E+01
0.25197458E+01
0.17692523E+01
0.12690970E+01
0.89311814E+00
0.61917681E+00
0.43852350E+00
0.30876821E+00
0.21977885E+00
0.15719661E+00
0.11310582E+00
0.83463222E-01
0.61705220E-01
0.45955155E-01
0.34506857E-01
0.26062565E-01
0.19850874E-01
0.15197563E-01
0.11671104E-01
0.89913234E-02
0.69608656E-02
0.54404507E-02
0.42436086E-02
0.33123775E-02
0.25991611E-02
0.20407645E-02
0.16096535E-02
0.12700823E-02
0.10043903E-02
0.79875108E-03
0.63770858E-03
0.50944445E-03
0.40636753E-03
0.32553912E-03
0.26181407E-03
0.21000624E-03
0.16901403E-03
0.13634242E-03
0.10990526E-03
0.88833687E-04
0.71749128E-04
0.57982536E-04
0.46885227E-04
0.38008493E-04
