atomic number =  107
effective nuclear charge =  107
electron count =    4
net charge =  103
basis set = approximate basis set limit (UGBS)      
exchange correlation functional = PW91PW91            
cutoff radius (picometer) =  300
number of shells =   50
prepared by = Thomas A. Manz      
prepared date = July 2010           
net magnetization =    0
density in atomic units:
0.17434275E+06
0.14826842E+00
0.21731111E-03
0.56394121E-04
0.12682229E-04
0.34276820E-05
0.24263661E-05
0.12861349E-05
0.96486190E-07
0.43567300E-06
0.29176314E-06
0.35570732E-07
0.20574959E-07
0.69818832E-07
0.67767417E-07
0.31870467E-07
0.55653855E-08
0.88954505E-09
0.65775283E-08
0.11636296E-07
0.11786510E-07
0.83457170E-08
0.42173895E-08
0.13018955E-08
0.11384923E-09
0.24495936E-09
0.94596253E-09
0.16009450E-08
0.19319242E-08
0.18760600E-08
0.15410498E-08
0.10818526E-08
0.64228972E-09
0.30049316E-09
0.91824263E-10
0.88817920E-11
0.16338094E-10
0.76853281E-10
0.15692905E-09
0.22869666E-09
0.27739172E-09
0.29834826E-09
0.29225444E-09
0.26492764E-09
0.22367931E-09
0.17661217E-09
0.12933482E-09
0.86912380E-10
0.52305361E-10
0.26990438E-10
