atomic number =   53
effective nuclear charge =   53
electron count =   28
net charge =   25
basis set = approximate basis set limit (UGBS)      
exchange correlation functional = PW91PW91            
cutoff radius (picometer) =  300
number of shells =   50
prepared by = Thomas A. Manz      
prepared date = July 2010           
net magnetization =    0
density in atomic units:
0.20660771E+05
0.14822066E+03
0.57978546E+02
0.17123045E+02
0.39081020E+01
0.69514811E+00
0.11801320E+00
0.22218389E-01
0.39012351E-02
0.71082695E-03
0.13233323E-03
0.23409693E-04
0.44430835E-05
0.75239564E-06
0.12188669E-06
0.21587017E-07
0.38144776E-08
0.78233092E-09
0.88842739E-09
0.15330204E-08
0.17478800E-08
0.14538674E-08
0.93555597E-09
0.46529480E-09
0.17837314E-09
0.82091611E-10
0.10880569E-09
0.17786063E-09
0.23634827E-09
0.25748095E-09
0.23970867E-09
0.19543663E-09
0.14141802E-09
0.90194664E-10
0.50518416E-10
0.25743041E-10
0.14273349E-10
0.12825343E-10
0.17644540E-10
0.24935347E-10
0.31872015E-10
0.36878733E-10
0.39037093E-10
0.38373468E-10
0.35364937E-10
0.30775320E-10
0.25306493E-10
0.19683614E-10
0.14449693E-10
0.10024172E-10
