atomic number =   79
effective nuclear charge =   79
electron count =   28
net charge =   51
basis set = approximate basis set limit (UGBS)      
exchange correlation functional = PW91PW91            
cutoff radius (picometer) =  300
number of shells =   50
prepared by = Thomas A. Manz      
prepared date = July 2010           
net magnetization =    0
density in atomic units:
0.74404961E+05
0.23099568E+03
0.25565952E+02
0.15029793E+01
0.76780096E-01
0.29804967E-02
0.98457742E-04
0.50720469E-05
0.30639424E-06
0.20398558E-06
0.12582144E-06
0.16012436E-07
0.89813401E-08
0.29721845E-07
0.29044230E-07
0.13889275E-07
0.26117610E-08
0.48495880E-09
0.28297680E-08
0.49834474E-08
0.50788378E-08
0.36337209E-08
0.18723956E-08
0.61059491E-09
0.80516746E-10
0.11830549E-09
0.40833478E-09
0.68668887E-09
0.83131824E-09
0.81177526E-09
0.67187489E-09
0.47666365E-09
0.28772607E-09
0.13910235E-09
0.46877151E-10
0.85714812E-11
0.95401924E-11
0.33966122E-10
0.67517235E-10
0.98122510E-10
0.11927730E-09
0.12879635E-09
0.12667976E-09
0.11541199E-09
0.98007005E-10
0.77914022E-10
0.57589791E-10
0.39211728E-10
0.24093533E-10
0.12917692E-10
