atomic number =   73
effective nuclear charge =   73
electron count =   36
net charge =   37
basis set = approximate basis set limit (UGBS)      
exchange correlation functional = PW91PW91            
cutoff radius (picometer) =  300
number of shells =   50
prepared by = Thomas A. Manz      
prepared date = July 2010           
net magnetization =    0
density in atomic units:
0.58352789E+05
0.23456053E+03
0.40239147E+02
0.12986519E+02
0.63964529E+01
0.23345928E+01
0.71678925E+00
0.21780033E+00
0.61403021E-01
0.17073039E-01
0.44882647E-02
0.11031717E-02
0.29761257E-03
0.79244463E-04
0.21596537E-04
0.59441454E-05
0.15575340E-05
0.43018261E-06
0.11707039E-06
0.36273327E-07
0.14647563E-07
0.69887540E-08
0.31580667E-08
0.11080002E-08
0.30734060E-09
0.31407771E-09
0.65973865E-09
0.99276531E-09
0.11546474E-08
0.11082010E-08
0.91103436E-09
0.64666522E-09
0.39439038E-09
0.19746040E-09
0.75973942E-10
0.26027056E-10
0.27887045E-10
0.60493263E-10
0.10481845E-09
0.14485854E-09
0.17198988E-09
0.18336849E-09
0.17934258E-09
0.16296983E-09
0.13840275E-09
0.11034216E-09
0.82049374E-10
0.56517103E-10
0.35506993E-10
0.19938154E-10
