atomic number =   44
effective nuclear charge =   44
electron count =   18
net charge =   26
basis set = approximate basis set limit (UGBS)      
exchange correlation functional = PW91PW91            
cutoff radius (picometer) =  300
number of shells =   50
prepared by = Thomas A. Manz      
prepared date = July 2010           
net magnetization =    0
density in atomic units:
0.11317260E+05
0.83358192E+02
0.21423220E+02
0.11292742E+02
0.43372407E+01
0.12497896E+01
0.32563108E+00
0.87946676E-01
0.22258526E-01
0.56093019E-02
0.13431455E-02
0.29963540E-03
0.74199437E-04
0.18364612E-04
0.47592175E-05
0.12729688E-05
0.32316782E-06
0.82637698E-07
0.18260494E-07
0.37785668E-08
0.11861157E-08
0.69987977E-09
0.40901788E-09
0.16689117E-09
0.43817457E-10
0.41415423E-10
0.10361357E-09
0.17055761E-09
0.20995496E-09
0.21065523E-09
0.18042697E-09
0.13399383E-09
0.86513179E-10
0.47136666E-10
0.20844064E-10
0.79939579E-11
0.55090633E-11
0.97189166E-11
0.17095386E-10
0.24505885E-10
0.30075480E-10
0.33023365E-10
0.33111801E-10
0.30827153E-10
0.26840854E-10
0.21971282E-10
0.16847509E-10
0.12051206E-10
0.79608030E-11
0.48041918E-11
