atomic number =   43
effective nuclear charge =   43
electron count =   30
net charge =   13
basis set = approximate basis set limit (UGBS)      
exchange correlation functional = PW91PW91            
cutoff radius (picometer) =  300
number of shells =   50
prepared by = Thomas A. Manz      
prepared date = July 2010           
net magnetization =    0
density in atomic units:
0.10563025E+05
0.11764614E+03
0.44071972E+02
0.22352388E+02
0.90209541E+01
0.30684302E+01
0.11447066E+01
0.54864198E+00
0.30736464E+00
0.18947683E+00
0.11717469E+00
0.70937298E-01
0.43642264E-01
0.26115963E-01
0.15501860E-01
0.90457117E-02
0.51803696E-02
0.30246403E-02
0.17338314E-02
0.98820357E-03
0.56316488E-03
0.32030791E-03
0.18318693E-03
0.10489991E-03
0.59924343E-04
0.34197587E-04
0.19561809E-04
0.11348499E-04
0.65106524E-05
0.37096659E-05
0.21216481E-05
0.12042057E-05
0.68446667E-06
0.38613962E-06
0.21680017E-06
0.12246510E-06
0.69349582E-07
0.39148894E-07
0.21926832E-07
0.12399316E-07
0.70957631E-08
0.40469126E-08
0.23436066E-08
0.13777975E-08
0.81636353E-09
0.49260834E-09
0.30021283E-09
0.18519057E-09
0.11537706E-09
0.72987623E-10
