atomic number =   16
effective nuclear charge =   16
electron count =    4
net charge =   12
basis set = approximate basis set limit (UGBS)      
exchange correlation functional = PW91PW91            
cutoff radius (picometer) =  300
number of shells =   50
prepared by = Thomas A. Manz      
prepared date = July 2010           
net magnetization =    0
density in atomic units:
0.50215323E+03
0.12278848E+02
0.36363652E+01
0.22292109E+01
0.11316670E+01
0.47628397E+00
0.18920965E+00
0.76809689E-01
0.29732367E-01
0.11485084E-01
0.43011191E-02
0.15648326E-02
0.60912978E-03
0.23142649E-03
0.87904540E-04
0.33064269E-04
0.12102379E-04
0.46667765E-05
0.17671158E-05
0.67027196E-06
0.25614472E-06
0.97695654E-07
0.37474042E-07
0.14359928E-07
0.54814260E-08
0.21204460E-08
0.85435731E-09
0.37582501E-09
0.17762379E-09
0.90877035E-10
0.49629557E-10
0.27205340E-10
0.14268216E-10
0.65899014E-11
0.23849460E-11
0.55293378E-12
0.19865616E-12
0.67638587E-12
0.15012115E-11
0.23007739E-11
0.28736000E-11
0.31480584E-11
0.31174154E-11
0.28442337E-11
0.24086720E-11
0.19009109E-11
0.13871097E-11
0.92492214E-12
0.54887290E-12
0.27619386E-12
