atomic number =   61
effective nuclear charge =   61
electron count =   18
net charge =   43
basis set = approximate basis set limit (UGBS)      
exchange correlation functional = PW91PW91            
cutoff radius (picometer) =  300
number of shells =   50
prepared by = Thomas A. Manz      
prepared date = July 2010           
net magnetization =    0
density in atomic units:
0.32420812E+05
0.87016037E+02
0.28428171E+02
0.51883354E+01
0.68972480E+00
0.65785736E-01
0.58791754E-02
0.61953400E-03
0.54412307E-04
0.43925584E-05
0.41042568E-06
0.51356423E-07
0.16713091E-07
0.15782220E-07
0.11848833E-07
0.49937494E-08
0.80371471E-09
0.31564568E-09
0.13717913E-08
0.21669140E-08
0.20926418E-08
0.14373693E-08
0.70727313E-09
0.21221876E-09
0.23270346E-10
0.59239447E-10
0.18689940E-09
0.30049710E-09
0.35423281E-09
0.33931732E-09
0.27630526E-09
0.19268098E-09
0.11383830E-09
0.53153853E-10
0.16544722E-10
0.23820180E-11
0.42222679E-11
0.15354790E-10
0.29803018E-10
0.42608687E-10
0.51191086E-10
0.54782984E-10
0.53482586E-10
0.48393477E-10
0.40820652E-10
0.32220247E-10
0.23619532E-10
0.15908766E-10
0.96252398E-11
0.50287730E-11
