atomic number =  106
effective nuclear charge =  106
electron count =   46
net charge =   60
basis set = approximate basis set limit (UGBS)      
exchange correlation functional = PW91PW91            
cutoff radius (picometer) =  300
number of shells =   50
prepared by = Thomas A. Manz      
prepared date = July 2010           
net magnetization =    0
density in atomic units:
0.17901703E+06
0.23754930E+03
0.73853607E+02
0.16185225E+02
0.23112011E+01
0.22601900E+00
0.20448426E-01
0.23457068E-02
0.23452187E-03
0.19850993E-04
0.17278992E-05
0.16509969E-06
0.39302151E-07
0.11170952E-06
0.12886723E-06
0.78893798E-07
0.27316668E-07
0.74107644E-08
0.96843555E-08
0.17489224E-07
0.20367136E-07
0.17111027E-07
0.11045734E-07
0.54969531E-08
0.21355133E-08
0.10556390E-08
0.14302579E-08
0.22790452E-08
0.29678164E-08
0.31853467E-08
0.29285794E-08
0.23584152E-08
0.16837303E-08
0.10571105E-08
0.58160454E-09
0.29298605E-09
0.16744391E-09
0.16192883E-09
0.22889182E-09
0.32146888E-09
0.40578185E-09
0.46394585E-09
0.48524196E-09
0.47205528E-09
0.43054016E-09
0.37067666E-09
0.30132902E-09
0.23143669E-09
0.16754789E-09
0.11424454E-09
