atomic number =  109
effective nuclear charge =  109
electron count =   68
net charge =   41
basis set = approximate basis set limit (UGBS)      
exchange correlation functional = PW91PW91            
cutoff radius (picometer) =  300
number of shells =   50
prepared by = Thomas A. Manz      
prepared date = July 2010           
net magnetization =    0
density in atomic units:
0.19355498E+06
0.36393134E+03
0.11799272E+03
0.28367064E+02
0.98491259E+01
0.36928990E+01
0.12208377E+01
0.38770685E+00
0.11156254E+00
0.30959342E-01
0.79815546E-02
0.19005451E-02
0.49689261E-03
0.12900877E-03
0.34667279E-04
0.94922671E-05
0.24531003E-05
0.64770444E-06
0.16639699E-06
0.59903776E-07
0.38026062E-07
0.27503154E-07
0.17074560E-07
0.84222069E-08
0.34068597E-08
0.19390838E-08
0.26349465E-08
0.39540642E-08
0.49420628E-08
0.51594493E-08
0.46463020E-08
0.36756787E-08
0.25830413E-08
0.16003070E-08
0.87686630E-09
0.45576765E-09
0.28937089E-09
0.30423736E-09
0.42298451E-09
0.57170862E-09
0.69935996E-09
0.77990236E-09
0.80085810E-09
0.76657541E-09
0.68944028E-09
0.58602023E-09
0.47054544E-09
0.35706657E-09
0.25538519E-09
0.17244782E-09
