atomic number =   69
effective nuclear charge =   69
electron count =   46
net charge =   23
basis set = approximate basis set limit (UGBS)      
exchange correlation functional = PW91PW91            
cutoff radius (picometer) =  300
number of shells =   50
prepared by = Thomas A. Manz      
prepared date = July 2010           
net magnetization =    0
density in atomic units:
0.48753465E+05
0.23342781E+03
0.48167694E+02
0.20429459E+02
0.13146462E+02
0.63349771E+01
0.26016922E+01
0.10482726E+01
0.40076080E+00
0.15358311E+00
0.57187792E-01
0.20770432E-01
0.81692180E-02
0.31908439E-02
0.12636090E-02
0.49779494E-03
0.19066776E-03
0.76463162E-04
0.30247827E-04
0.12177655E-04
0.50758067E-05
0.21818353E-05
0.96825022E-06
0.43455543E-06
0.19250398E-06
0.82894019E-07
0.34304293E-07
0.13827154E-07
0.52856786E-08
0.20801734E-08
0.10288629E-08
0.69997619E-09
0.56861371E-09
0.46386928E-09
0.35800413E-09
0.26363689E-09
0.19301763E-09
0.15028125E-09
0.13317172E-09
0.13491061E-09
0.14644209E-09
0.16040821E-09
0.17098700E-09
0.17495566E-09
0.17152611E-09
0.16120996E-09
0.14549113E-09
0.12635423E-09
0.10589473E-09
0.86033673E-10
