atomic number =   71
effective nuclear charge =   71
electron count =   48
net charge =   23
basis set = approximate basis set limit (UGBS)      
exchange correlation functional = PW91PW91            
cutoff radius (picometer) =  300
number of shells =   50
prepared by = Thomas A. Manz      
prepared date = July 2010           
net magnetization =    0
density in atomic units:
0.53490137E+05
0.23906865E+03
0.47192776E+02
0.22096342E+02
0.13344117E+02
0.59689250E+01
0.24145477E+01
0.10603346E+01
0.50759739E+00
0.27714717E+00
0.16241400E+00
0.98534510E-01
0.62695116E-01
0.39430380E-01
0.24744991E-01
0.15296517E-01
0.92935581E-02
0.57365876E-02
0.34800058E-02
0.20989974E-02
0.12652912E-02
0.76110836E-03
0.45993726E-03
0.27803003E-03
0.16756695E-03
0.10078754E-03
0.60690625E-04
0.36978097E-04
0.22284665E-04
0.13342027E-04
0.80149466E-05
0.47831909E-05
0.28597422E-05
0.16989735E-05
0.10055021E-05
0.59844513E-06
0.35682064E-06
0.21189652E-06
0.12465998E-06
0.73734434E-07
0.43894030E-07
0.25926090E-07
0.15446595E-07
0.92630010E-08
0.55640639E-08
0.33944583E-08
0.20874573E-08
0.13060344E-08
0.83335805E-09
0.54690863E-09
