atomic number =   19
effective nuclear charge =   19
electron count =   12
net charge =    7
basis set = approximate basis set limit (UGBS)      
exchange correlation functional = PW91PW91            
cutoff radius (picometer) =  300
number of shells =   50
prepared by = Thomas A. Manz      
prepared date = July 2010           
net magnetization =    0
density in atomic units:
0.83050098E+03
0.41614403E+02
0.19994688E+02
0.81673584E+01
0.29739518E+01
0.10136955E+01
0.43064818E+00
0.25864732E+00
0.18563178E+00
0.14183012E+00
0.10662184E+00
0.77788286E-01
0.56592826E-01
0.40052544E-01
0.28020257E-01
0.19257519E-01
0.13030835E-01
0.89125261E-02
0.60088253E-02
0.40307953E-02
0.27011072E-02
0.18054224E-02
0.12099748E-02
0.81021694E-03
0.54070546E-03
0.35999945E-03
0.23996235E-03
0.16153732E-03
0.10793142E-03
0.71905575E-04
0.48161914E-04
0.32193377E-04
0.21625350E-04
0.14504957E-04
0.97350494E-05
0.65805448E-05
0.44665017E-05
0.30275585E-05
0.20410921E-05
0.13825246E-05
0.94030941E-06
0.63471555E-06
0.42955079E-06
0.29103717E-06
0.19619769E-06
0.13241879E-06
0.88894495E-07
0.59483572E-07
0.39661632E-07
0.26444630E-07
