atomic number =   57
effective nuclear charge =   57
electron count =   12
net charge =   45
basis set = approximate basis set limit (UGBS)      
exchange correlation functional = PW91PW91            
cutoff radius (picometer) =  300
number of shells =   50
prepared by = Thomas A. Manz      
prepared date = July 2010           
net magnetization =    0
density in atomic units:
0.26038199E+05
0.51296337E+02
0.81686497E+01
0.18234253E+01
0.28820223E+00
0.32571234E-01
0.33338114E-02
0.37650700E-03
0.36909660E-04
0.37578184E-05
0.44549404E-06
0.53829279E-07
0.10093645E-07
0.86791561E-08
0.73484032E-08
0.33651113E-08
0.59134031E-09
0.13731780E-09
0.76155315E-09
0.12923732E-08
0.12887782E-08
0.90344815E-09
0.45233001E-09
0.13805107E-09
0.12902428E-10
0.30282960E-10
0.10797625E-09
0.17918132E-09
0.21422010E-09
0.20682880E-09
0.16919546E-09
0.11836696E-09
0.69997015E-10
0.32567626E-10
0.98743192E-11
0.10006416E-11
0.20172303E-11
0.87990249E-11
0.17674513E-10
0.25564027E-10
0.30889857E-10
0.33129215E-10
0.32376633E-10
0.29309465E-10
0.24712739E-10
0.19481642E-10
0.14248483E-10
0.95627829E-11
0.57482877E-11
0.29598960E-11
