atomic number =   46
effective nuclear charge =   46
electron count =    4
net charge =   42
basis set = approximate basis set limit (UGBS)      
exchange correlation functional = PW91PW91            
cutoff radius (picometer) =  300
number of shells =   50
prepared by = Thomas A. Manz      
prepared date = July 2010           
net magnetization =    0
density in atomic units:
0.12457320E+05
0.22027529E+02
0.10126231E+01
0.29601522E-01
0.88983221E-03
0.19173929E-04
0.18239542E-06
0.34114528E-07
0.68861006E-08
0.22314188E-07
0.12849373E-07
0.13096036E-08
0.12439688E-08
0.35471637E-08
0.32399008E-08
0.14504631E-08
0.22905564E-09
0.56146206E-10
0.35221789E-09
0.59097882E-09
0.58345317E-09
0.40514014E-09
0.20029625E-09
0.59416708E-10
0.46769186E-11
0.14032125E-10
0.49942713E-10
0.82296420E-10
0.97903234E-10
0.94175626E-10
0.76777210E-10
0.53497318E-10
0.31475565E-10
0.14522682E-10
0.43084967E-11
0.38079568E-12
0.93232095E-12
0.40793987E-11
0.81475018E-11
0.11744447E-10
0.14153233E-10
0.15154638E-10
0.14794421E-10
0.13373180E-10
0.11260726E-10
0.88664857E-11
0.64742404E-11
0.43357301E-11
0.25967251E-11
0.13300809E-11
