atomic number =   48
effective nuclear charge =   48
electron count =   12
net charge =   36
basis set = approximate basis set limit (UGBS)      
exchange correlation functional = PW91PW91            
cutoff radius (picometer) =  300
number of shells =   50
prepared by = Thomas A. Manz      
prepared date = July 2010           
net magnetization =    0
density in atomic units:
0.14945478E+05
0.68765800E+02
0.81519136E+01
0.28904257E+01
0.82162625E+00
0.17056891E+00
0.31497315E-01
0.61802301E-02
0.11249619E-02
0.20378623E-03
0.34611727E-04
0.52031041E-05
0.87530861E-06
0.15387461E-06
0.34008433E-07
0.92481613E-08
0.22594271E-08
0.59200717E-09
0.55245475E-09
0.78162055E-09
0.77965473E-09
0.55901112E-09
0.29040481E-09
0.96967427E-10
0.15243844E-10
0.20742245E-10
0.65101459E-10
0.10762241E-09
0.12949754E-09
0.12601513E-09
0.10402727E-09
0.73587324E-10
0.44244094E-10
0.21252257E-10
0.70565095E-11
0.12405886E-11
0.15035917E-11
0.53773808E-11
0.10631811E-10
0.15391669E-10
0.18657839E-10
0.20096343E-10
0.19733081E-10
0.17939074E-10
0.15204027E-10
0.12054554E-10
0.88836482E-11
0.60237184E-11
0.36783961E-11
0.19513978E-11
