atomic number =   29
effective nuclear charge =   29
electron count =   18
net charge =   11
basis set = approximate basis set limit (UGBS)      
exchange correlation functional = PW91PW91            
cutoff radius (picometer) =  300
number of shells =   50
prepared by = Thomas A. Manz      
prepared date = July 2010           
net magnetization =    0
density in atomic units:
0.29893337E+04
0.85738373E+02
0.18175003E+02
0.54699926E+01
0.37186701E+01
0.26131196E+01
0.16296965E+01
0.96042711E+00
0.53160971E+00
0.28880003E+00
0.15193324E+00
0.78336887E-01
0.42143501E-01
0.22335924E-01
0.11910005E-01
0.63229338E-02
0.33262218E-02
0.18114295E-02
0.97598456E-03
0.52642723E-03
0.28530534E-03
0.15473594E-03
0.84580897E-04
0.46393507E-04
0.25457712E-04
0.14017842E-04
0.77827217E-05
0.44143526E-05
0.24914589E-05
0.14045568E-05
0.79828271E-06
0.45123002E-06
0.25535326E-06
0.14300279E-06
0.79245837E-07
0.43834113E-07
0.24058673E-07
0.12995798E-07
0.68555481E-08
0.35943959E-08
0.18798678E-08
0.96454167E-09
0.49664617E-09
0.25918992E-09
0.13667328E-09
0.73875371E-10
0.40299614E-10
0.21765374E-10
0.11184090E-10
0.52086300E-11
