atomic number =   31
effective nuclear charge =   31
electron count =   18
net charge =   13
basis set = approximate basis set limit (UGBS)      
exchange correlation functional = PW91PW91            
cutoff radius (picometer) =  300
number of shells =   50
prepared by = Thomas A. Manz      
prepared date = July 2010           
net magnetization =    0
density in atomic units:
0.36912495E+04
0.89491081E+02
0.16676777E+02
0.60513330E+01
0.43188457E+01
0.27565057E+01
0.15481211E+01
0.83376229E+00
0.42338353E+00
0.21189749E+00
0.10267510E+00
0.48659086E-01
0.24208739E-01
0.11842486E-01
0.58243484E-02
0.28501588E-02
0.13784501E-02
0.69375435E-03
0.34518214E-03
0.17199616E-03
0.86100961E-04
0.43038806E-04
0.21624899E-04
0.10861711E-04
0.54323564E-05
0.27179658E-05
0.13696348E-05
0.70776332E-06
0.36454196E-06
0.18823555E-06
0.98637635E-07
0.51633737E-07
0.27187250E-07
0.14199399E-07
0.73419217E-08
0.37909631E-08
0.19400237E-08
0.97650388E-09
0.48262727E-09
0.24099678E-09
0.12481693E-09
0.68033877E-10
0.40899006E-10
0.27070410E-10
0.18989747E-10
0.13581401E-10
0.94611081E-11
0.62168127E-11
0.37218080E-11
0.19439153E-11
