atomic number =   30
effective nuclear charge =   30
electron count =    2
net charge =   28
basis set = approximate basis set limit (UGBS)      
exchange correlation functional = PW91PW91            
cutoff radius (picometer) =  300
number of shells =   50
prepared by = Thomas A. Manz      
prepared date = July 2010           
net magnetization =    0
density in atomic units:
0.28257310E+04
0.10599239E+01
0.23956031E-02
0.71559966E-05
0.65723569E-07
0.16597321E-07
0.16445622E-07
0.75383966E-08
0.69503614E-09
0.29900060E-08
0.18670168E-08
0.20421374E-09
0.15825438E-09
0.48882820E-09
0.45846479E-09
0.20953211E-09
0.34411623E-10
0.70022122E-11
0.47628970E-10
0.81716731E-10
0.81539921E-10
0.57080077E-10
0.28472551E-10
0.85819789E-11
0.69866178E-12
0.18456131E-11
0.67996650E-11
0.11328307E-10
0.13557260E-10
0.13090556E-10
0.10705227E-10
0.74827471E-11
0.44189929E-11
0.20504232E-11
0.61561037E-12
0.56184363E-13
0.12282498E-12
0.55410402E-12
0.11169855E-11
0.16174271E-11
0.19545958E-11
0.20969127E-11
0.20494689E-11
0.18547698E-11
0.15636782E-11
0.12324464E-11
0.90101581E-12
0.60421871E-12
0.36259220E-12
0.18628783E-12
