atomic number =  107
effective nuclear charge =  107
electron count =   68
net charge =   39
basis set = approximate basis set limit (UGBS)      
exchange correlation functional = PW91PW91            
cutoff radius (picometer) =  300
number of shells =   50
prepared by = Thomas A. Manz      
prepared date = July 2010           
net magnetization =    0
density in atomic units:
0.18421998E+06
0.35604395E+03
0.11935754E+03
0.29714535E+02
0.10155925E+02
0.39572001E+01
0.13986502E+01
0.47399127E+00
0.14517774E+00
0.42681057E-01
0.11674513E-01
0.29820474E-02
0.83910779E-03
0.23532112E-03
0.67879853E-04
0.19631316E-04
0.52839123E-05
0.14213131E-05
0.34776002E-06
0.97062014E-07
0.45771404E-07
0.29496382E-07
0.17199255E-07
0.77049771E-08
0.27213156E-08
0.18973649E-08
0.33868737E-08
0.52821454E-08
0.65037931E-08
0.66236749E-08
0.58003828E-08
0.44417279E-08
0.29963521E-08
0.17533835E-08
0.88243912E-09
0.41532544E-09
0.27258548E-09
0.34964986E-09
0.54199922E-09
0.75353018E-09
0.92250518E-09
0.10199503E-08
0.10349843E-08
0.97761921E-09
0.86580243E-09
0.72296630E-09
0.56857491E-09
0.42036291E-09
0.29077976E-09
0.18775839E-09
