atomic number =   36
effective nuclear charge =   36
electron count =   10
net charge =   26
basis set = approximate basis set limit (UGBS)      
exchange correlation functional = PW91PW91            
cutoff radius (picometer) =  300
number of shells =   50
prepared by = Thomas A. Manz      
prepared date = July 2010           
net magnetization =    0
density in atomic units:
0.58264736E+04
0.87382744E+02
0.98906708E+01
0.81894857E+00
0.64421810E-01
0.38958634E-02
0.22957538E-03
0.18726994E-04
0.13411632E-05
0.74261393E-07
0.48722812E-08
0.62218686E-09
0.24871977E-09
0.89718966E-09
0.10455105E-08
0.63487415E-09
0.21029957E-09
0.49534946E-10
0.73524464E-10
0.14225467E-09
0.16799075E-09
0.14108792E-09
0.90117643E-10
0.43500238E-10
0.15488312E-10
0.68643806E-11
0.10552621E-10
0.18171790E-10
0.24334351E-10
0.26384502E-10
0.24315411E-10
0.19534317E-10
0.13837335E-10
0.85392830E-11
0.45297386E-11
0.21159840E-11
0.10936497E-11
0.10948604E-11
0.17115302E-11
0.25421895E-11
0.32959607E-11
0.38187457E-11
0.40220023E-11
0.39259728E-11
0.35835258E-11
0.30812553E-11
0.24965746E-11
0.19060038E-11
0.13653271E-11
0.91571748E-12
