atomic number =  107
effective nuclear charge =  107
electron count =   86
net charge =   21
basis set = approximate basis set limit (UGBS)      
exchange correlation functional = PW91PW91            
cutoff radius (picometer) =  300
number of shells =   50
prepared by = Thomas A. Manz      
prepared date = July 2010           
net magnetization =    0
density in atomic units:
0.18434408E+06
0.36699493E+03
0.12217342E+03
0.32913288E+02
0.16005415E+02
0.82884941E+01
0.39099123E+01
0.20426464E+01
0.12249647E+01
0.83044702E+00
0.57892311E+00
0.39854977E+00
0.27562484E+00
0.18496425E+00
0.12252061E+00
0.79574339E-01
0.50749719E-01
0.32768656E-01
0.20797987E-01
0.13115574E-01
0.82581807E-02
0.51870397E-02
0.32717199E-02
0.20653291E-02
0.13015891E-02
0.81996474E-03
0.51797164E-03
0.33120703E-03
0.20998753E-03
0.13254532E-03
0.84005063E-04
0.52983185E-04
0.33503558E-04
0.21087455E-04
0.13244167E-04
0.83704017E-05
0.53069593E-05
0.33579388E-05
0.21109367E-05
0.13353687E-05
0.84995514E-06
0.53706469E-06
0.34105577E-06
0.21728512E-06
0.13791114E-06
0.87779704E-07
0.55640264E-07
0.35186165E-07
0.22203549E-07
0.14048076E-07
