atomic number =   41
effective nuclear charge =   41
electron count =   12
net charge =   29
basis set = approximate basis set limit (UGBS)      
exchange correlation functional = PW91PW91            
cutoff radius (picometer) =  300
number of shells =   50
prepared by = Thomas A. Manz      
prepared date = July 2010           
net magnetization =    0
density in atomic units:
0.89914414E+04
0.83254944E+02
0.87158422E+01
0.30625236E+01
0.13208587E+01
0.43538415E+00
0.12709258E+00
0.37646443E-01
0.10318858E-01
0.27713208E-02
0.70717459E-03
0.17172005E-03
0.46659923E-04
0.12559860E-04
0.33972335E-05
0.88976088E-06
0.20493458E-06
0.43711005E-07
0.67890475E-08
0.71096895E-09
0.26534586E-09
0.25975852E-09
0.13857489E-09
0.36632586E-10
0.27140295E-10
0.87704954E-10
0.16331425E-09
0.21272283E-09
0.22297034E-09
0.19724671E-09
0.15076990E-09
0.98894337E-10
0.54365224E-10
0.22776588E-10
0.57263699E-11
0.10812670E-11
0.46296513E-11
0.12425292E-10
0.21166686E-10
0.28245604E-10
0.32479547E-10
0.33655460E-10
0.32041030E-10
0.28368034E-10
0.23442810E-10
0.18126462E-10
0.12978649E-10
0.84966765E-11
0.49411950E-11
0.24275510E-11
