atomic number =   76
effective nuclear charge =   76
electron count =   36
net charge =   40
basis set = approximate basis set limit (UGBS)      
exchange correlation functional = PW91PW91            
cutoff radius (picometer) =  300
number of shells =   50
prepared by = Thomas A. Manz      
prepared date = July 2010           
net magnetization =    0
density in atomic units:
0.66329203E+05
0.23947501E+03
0.37693066E+02
0.13444980E+02
0.60406561E+01
0.19381834E+01
0.52624482E+00
0.14321780E+00
0.36157638E-01
0.90445783E-02
0.21349909E-02
0.46391174E-03
0.11078834E-03
0.26238982E-04
0.65260151E-05
0.17044812E-05
0.43408272E-06
0.11779017E-06
0.33204703E-07
0.13106642E-07
0.76433349E-08
0.45797557E-08
0.21885351E-08
0.67581896E-09
0.12262553E-09
0.25828814E-09
0.66749184E-09
0.10218993E-08
0.11806245E-08
0.11197913E-08
0.90676239E-09
0.63066807E-09
0.37278963E-09
0.17575220E-09
0.57927139E-10
0.13307921E-10
0.20570507E-10
0.57687306E-10
0.10513570E-09
0.14674897E-09
0.17424485E-09
0.18515932E-09
0.17997287E-09
0.16239622E-09
0.13672220E-09
0.10783009E-09
0.79000757E-10
0.53282594E-10
0.32359160E-10
0.17095679E-10
