atomic number =   87
effective nuclear charge =   87
electron count =   80
net charge =    7
basis set = approximate basis set limit (UGBS)      
exchange correlation functional = PW91PW91            
cutoff radius (picometer) =  300
number of shells =   50
prepared by = Thomas A. Manz      
prepared date = July 2010           
net magnetization =    0
density in atomic units:
0.10138356E+06
0.29592633E+03
0.98315590E+02
0.45293911E+02
0.16401569E+02
0.72083526E+01
0.45370975E+01
0.30947316E+01
0.20021183E+01
0.12569129E+01
0.76660109E+00
0.46553144E+00
0.29678416E+00
0.19091149E+00
0.12595409E+00
0.84340714E-01
0.57132524E-01
0.39941907E-01
0.27955038E-01
0.19670177E-01
0.13910498E-01
0.98495297E-02
0.70025739E-02
0.49792132E-02
0.35319226E-02
0.25008889E-02
0.17724065E-02
0.12664521E-02
0.89870195E-03
0.63581095E-03
0.45146918E-03
0.31971314E-03
0.22709323E-03
0.16086508E-03
0.11384713E-03
0.80957150E-04
0.57685502E-04
0.41006781E-04
0.28977518E-04
0.20552576E-04
0.14622011E-04
0.10334590E-04
0.73276269E-05
0.52051801E-05
0.36895869E-05
0.26235905E-05
0.18629231E-05
0.13236065E-05
0.94148413E-06
0.67270048E-06
