atomic number =   83
effective nuclear charge =   83
electron count =   46
net charge =   37
basis set = approximate basis set limit (UGBS)      
exchange correlation functional = PW91PW91            
cutoff radius (picometer) =  300
number of shells =   50
prepared by = Thomas A. Manz      
prepared date = July 2010           
net magnetization =    0
density in atomic units:
0.87515227E+05
0.25009097E+03
0.52290916E+02
0.28070465E+02
0.10819539E+02
0.29569244E+01
0.72443634E+00
0.18483682E+00
0.44388607E-01
0.10885917E-01
0.26021858E-02
0.57910912E-03
0.13971861E-03
0.33059187E-04
0.83214745E-05
0.22917832E-05
0.65034271E-06
0.20248339E-06
0.64214596E-07
0.24543192E-07
0.12648352E-07
0.73378734E-08
0.38612917E-08
0.16632560E-08
0.71742601E-09
0.71144779E-09
0.11371295E-08
0.15597523E-08
0.17668442E-08
0.16986021E-08
0.14241606E-08
0.10512100E-08
0.68722988E-09
0.39327122E-09
0.20073024E-09
0.10815263E-09
0.90818214E-10
0.12075391E-09
0.17196471E-09
0.22195364E-09
0.25765906E-09
0.27373581E-09
0.26914573E-09
0.24776453E-09
0.21453468E-09
0.17562864E-09
0.13553812E-09
0.98494615E-10
0.67120302E-10
0.43011456E-10
