atomic number =   83
effective nuclear charge =   83
electron count =   30
net charge =   53
basis set = approximate basis set limit (UGBS)      
exchange correlation functional = PW91PW91            
cutoff radius (picometer) =  300
number of shells =   50
prepared by = Thomas A. Manz      
prepared date = July 2010           
net magnetization =    0
density in atomic units:
0.87415445E+05
0.23388475E+03
0.24155790E+02
0.42392473E+01
0.11149706E+01
0.22239622E+00
0.37674654E-01
0.66872849E-02
0.11091948E-02
0.18862626E-03
0.30191206E-04
0.38207072E-05
0.40009692E-06
0.48099086E-07
0.36184225E-07
0.19403222E-07
0.45115947E-08
0.27625671E-08
0.73752151E-08
0.10768986E-07
0.10239264E-07
0.70720110E-08
0.35788656E-08
0.11918565E-08
0.24955790E-09
0.38014056E-09
0.96037267E-09
0.14881288E-08
0.17406899E-08
0.16698829E-08
0.13691668E-08
0.96740205E-09
0.58511151E-09
0.28757222E-09
0.10467415E-09
0.30047322E-10
0.33666857E-10
0.83599398E-10
0.15113069E-09
0.21208797E-09
0.25365834E-09
0.27151922E-09
0.26580310E-09
0.24164021E-09
0.20516301E-09
0.16334754E-09
0.12120321E-09
0.83151881E-10
0.51813498E-10
0.28615374E-10
