atomic number =   73
effective nuclear charge =   73
electron count =   30
net charge =   43
basis set = approximate basis set limit (UGBS)      
exchange correlation functional = PW91PW91            
cutoff radius (picometer) =  300
number of shells =   50
prepared by = Thomas A. Manz      
prepared date = July 2010           
net magnetization =    0
density in atomic units:
0.58345469E+05
0.22632428E+03
0.36831482E+02
0.57539864E+01
0.17811670E+01
0.53815198E+00
0.14364068E+00
0.38714115E-01
0.96142842E-02
0.23301800E-02
0.52705675E-03
0.10908228E-03
0.24753052E-04
0.54689490E-05
0.12430439E-05
0.29840490E-06
0.73780321E-07
0.23811825E-07
0.12303295E-07
0.96309360E-08
0.75538802E-08
0.48997055E-08
0.24392404E-08
0.82699675E-09
0.19402910E-09
0.27266600E-09
0.64876243E-09
0.99157949E-09
0.11537539E-08
0.11040341E-08
0.90373131E-09
0.63783889E-09
0.38581491E-09
0.19041131E-09
0.71003585E-10
0.23047056E-10
0.26452434E-10
0.60030890E-10
0.10476749E-09
0.14477314E-09
0.17161188E-09
0.18257112E-09
0.17814610E-09
0.16147084E-09
0.13674434E-09
0.10866181E-09
0.80461769E-10
0.55119426E-10
0.34341023E-10
0.19028496E-10
