atomic number =  109
effective nuclear charge =  109
electron count =   78
net charge =   31
basis set = approximate basis set limit (UGBS)      
exchange correlation functional = PW91PW91            
cutoff radius (picometer) =  300
number of shells =   50
prepared by = Thomas A. Manz      
prepared date = July 2010           
net magnetization =    0
density in atomic units:
0.19356527E+06
0.37428781E+03
0.12018269E+03
0.31433334E+02
0.15702196E+02
0.80270662E+01
0.34129975E+01
0.13611813E+01
0.50150830E+00
0.18137398E+00
0.62373418E-01
0.20479295E-01
0.72668772E-02
0.25523196E-02
0.90990326E-03
0.32238438E-03
0.10944025E-03
0.38528506E-04
0.13111487E-04
0.45095521E-05
0.16314183E-05
0.63175202E-06
0.26431167E-06
0.11557778E-06
0.50937018E-07
0.22774218E-07
0.11279356E-07
0.72166051E-08
0.58964478E-08
0.53116680E-08
0.46563762E-08
0.37668313E-08
0.27832283E-08
0.18659057E-08
0.11511008E-08
0.69576256E-09
0.47337889E-09
0.42747217E-09
0.49271770E-09
0.60310784E-09
0.70855960E-09
0.78061529E-09
0.80350743E-09
0.77739709E-09
0.71098849E-09
0.61776156E-09
0.51029936E-09
0.40163423E-09
0.30135894E-09
0.21677475E-09
