atomic number =   32
effective nuclear charge =   32
electron count =   12
net charge =   20
basis set = approximate basis set limit (UGBS)      
exchange correlation functional = PW91PW91            
cutoff radius (picometer) =  300
number of shells =   50
prepared by = Thomas A. Manz      
prepared date = July 2010           
net magnetization =    0
density in atomic units:
0.40623867E+04
0.87639687E+02
0.14538791E+02
0.29133735E+01
0.13780854E+01
0.75406981E+00
0.37952814E+00
0.18378425E+00
0.82908668E-01
0.36633823E-01
0.15541370E-01
0.63783051E-02
0.27596029E-02
0.11643807E-02
0.49169431E-03
0.20605334E-03
0.84675725E-04
0.36473612E-04
0.15448661E-04
0.65337904E-05
0.27689841E-05
0.11657404E-05
0.49098901E-06
0.20544265E-06
0.84939394E-07
0.34981234E-07
0.14532115E-07
0.62898105E-08
0.27578657E-08
0.12460006E-08
0.59166844E-09
0.28897773E-09
0.14462725E-09
0.71833921E-10
0.34715088E-10
0.16393867E-10
0.78181498E-11
0.43685485E-11
0.35068090E-11
0.37466549E-11
0.42231717E-11
0.45302520E-11
0.45104003E-11
0.41724675E-11
0.35970137E-11
0.28992032E-11
0.21714418E-11
0.14991591E-11
0.93642075E-12
0.51437240E-12
