atomic number =  107
effective nuclear charge =  107
electron count =  100
net charge =    7
basis set = approximate basis set limit (UGBS)      
exchange correlation functional = PW91PW91            
cutoff radius (picometer) =  300
number of shells =   50
prepared by = Thomas A. Manz      
prepared date = July 2010           
net magnetization =    0
density in atomic units:
0.18435812E+06
0.37987918E+03
0.12338450E+03
0.34651413E+02
0.20008450E+02
0.12294275E+02
0.68144531E+01
0.39100659E+01
0.23415267E+01
0.14833095E+01
0.94743663E+00
0.60230768E+00
0.39296338E+00
0.25198656E+00
0.16114640E+00
0.10173948E+00
0.63375950E-01
0.40196955E-01
0.25152871E-01
0.15690802E-01
0.97986227E-02
0.61133532E-02
0.38335503E-02
0.24067545E-02
0.15086699E-02
0.94560394E-03
0.59463317E-03
0.37880504E-03
0.23946029E-03
0.15082804E-03
0.95460709E-04
0.60157530E-04
0.38024689E-04
0.23925344E-04
0.15020064E-04
0.94876232E-05
0.60105895E-05
0.37995546E-05
0.23864861E-05
0.15087155E-05
0.96026201E-06
0.60732430E-06
0.38650327E-06
0.24719159E-06
0.15781404E-06
0.10126158E-06
0.64896291E-07
0.41620051E-07
0.26733456E-07
0.17267229E-07
