atomic number =   52
effective nuclear charge =   52
electron count =   28
net charge =   24
basis set = approximate basis set limit (UGBS)      
exchange correlation functional = PW91PW91            
cutoff radius (picometer) =  300
number of shells =   50
prepared by = Thomas A. Manz      
prepared date = July 2010           
net magnetization =    0
density in atomic units:
0.19428020E+05
0.14430632E+03
0.57431541E+02
0.17999622E+02
0.43546228E+01
0.82364571E+00
0.14853479E+00
0.29522201E-01
0.55040075E-02
0.10642769E-02
0.20791970E-03
0.38276379E-04
0.75787361E-05
0.13775160E-05
0.24938097E-06
0.49766133E-07
0.10433988E-07
0.27300477E-08
0.15377538E-08
0.17340014E-08
0.17494787E-08
0.13693933E-08
0.83402463E-09
0.38329290E-09
0.12717769E-09
0.57069564E-10
0.99089292E-10
0.17333056E-09
0.23077742E-09
0.24838265E-09
0.22740072E-09
0.18160221E-09
0.12794739E-09
0.78526526E-10
0.41391134E-10
0.19214569E-10
0.99718029E-11
0.10186725E-10
0.16049934E-10
0.23822732E-10
0.30852418E-10
0.35706476E-10
0.37586635E-10
0.36674937E-10
0.33489204E-10
0.28825940E-10
0.23389537E-10
0.17890934E-10
0.12854154E-10
0.86597500E-11
