atomic number =   25
effective nuclear charge =   25
electron count =    4
net charge =   21
basis set = approximate basis set limit (UGBS)      
exchange correlation functional = PW91PW91            
cutoff radius (picometer) =  300
number of shells =   50
prepared by = Thomas A. Manz      
prepared date = July 2010           
net magnetization =    0
density in atomic units:
0.17640436E+04
0.16367735E+02
0.62411337E+01
0.15681157E+01
0.32880175E+00
0.55533424E-01
0.89577315E-02
0.16111854E-02
0.27382877E-03
0.47342703E-04
0.78146704E-05
0.11407691E-05
0.18116549E-06
0.27667379E-07
0.47541318E-08
0.10703356E-08
0.30160571E-09
0.12521062E-09
0.82430694E-10
0.68362288E-10
0.51731289E-10
0.31407956E-10
0.14188945E-10
0.40683078E-11
0.10405897E-11
0.26083330E-11
0.56747918E-11
0.80306543E-11
0.88516035E-11
0.81123667E-11
0.63785817E-11
0.42998964E-11
0.24409478E-11
0.10740512E-11
0.29814833E-12
0.45854799E-13
0.15098431E-12
0.45107443E-12
0.80652119E-12
0.11049663E-11
0.12926043E-11
0.13558238E-11
0.13025958E-11
0.11625299E-11
0.96787747E-12
0.75367214E-12
0.54385023E-12
0.35921206E-12
0.21125885E-12
0.10531950E-12
