atomic number =   97
effective nuclear charge =   97
electron count =   28
net charge =   69
basis set = approximate basis set limit (UGBS)      
exchange correlation functional = PW91PW91            
cutoff radius (picometer) =  300
number of shells =   50
prepared by = Thomas A. Manz      
prepared date = July 2010           
net magnetization =    0
density in atomic units:
0.13828598E+06
0.20101965E+03
0.70254154E+01
0.13357416E+00
0.23577949E-02
0.39093444E-04
0.27978028E-05
0.11705822E-05
0.12384724E-06
0.38508219E-06
0.26758548E-06
0.42518568E-07
0.21410312E-07
0.61725984E-07
0.61131637E-07
0.30496153E-07
0.67694215E-08
0.15972839E-08
0.59339755E-08
0.10281741E-07
0.10591047E-07
0.77266531E-08
0.41225272E-08
0.14707631E-08
0.29463745E-09
0.29786479E-09
0.85083041E-09
0.14098133E-08
0.17131545E-08
0.16870489E-08
0.14119914E-08
0.10175687E-08
0.62922778E-09
0.31850503E-09
0.12089556E-09
0.33778709E-10
0.28557007E-10
0.73481762E-10
0.13932212E-09
0.20100559E-09
0.24471805E-09
0.26528379E-09
0.26241917E-09
0.24059077E-09
0.20582601E-09
0.16515082E-09
0.12354688E-09
0.85546119E-10
0.53966970E-10
0.30292692E-10
