atomic number =   71
effective nuclear charge =   71
electron count =   46
net charge =   25
basis set = approximate basis set limit (UGBS)      
exchange correlation functional = PW91PW91            
cutoff radius (picometer) =  300
number of shells =   50
prepared by = Thomas A. Manz      
prepared date = July 2010           
net magnetization =    0
density in atomic units:
0.53436707E+05
0.23863545E+03
0.46980267E+02
0.21797398E+02
0.13288435E+02
0.59397469E+01
0.22874973E+01
0.87453371E+00
0.31826606E+00
0.11655813E+00
0.41496128E-01
0.14369756E-01
0.54059690E-02
0.20211495E-02
0.76765590E-03
0.29032267E-03
0.10633126E-03
0.40708273E-04
0.15294103E-04
0.58419209E-05
0.23214691E-05
0.96017368E-06
0.41494388E-06
0.18316099E-06
0.80379074E-07
0.34514837E-07
0.14439313E-07
0.61187149E-08
0.27161555E-08
0.14421145E-08
0.97461228E-09
0.74733253E-09
0.57962524E-09
0.42855006E-09
0.30186179E-09
0.21181341E-09
0.15950739E-09
0.13908594E-09
0.14114653E-09
0.15475654E-09
0.17035669E-09
0.18174696E-09
0.18537732E-09
0.18024085E-09
0.16728563E-09
0.14883013E-09
0.12697164E-09
0.10420294E-09
0.82518381E-10
0.63506631E-10
