atomic number =    7
effective nuclear charge =    7
electron count =    4
net charge =    3
basis set = approximate basis set limit (UGBS)      
exchange correlation functional = PW91PW91            
cutoff radius (picometer) =  400
number of shells =   75
prepared by = Thomas A. Manz      
prepared date = July 2010           
net magnetization =    0
density in atomic units:
0.74634926E+02
0.22252409E+02
0.61513901E+01
0.18201510E+01
0.61309898E+00
0.29433009E+00
0.21800949E+00
0.18750906E+00
0.16193976E+00
0.13601010E+00
0.11160312E+00
0.89543849E-01
0.70567720E-01
0.55148117E-01
0.42727716E-01
0.32829624E-01
0.25008287E-01
0.18978734E-01
0.14430366E-01
0.10981745E-01
0.83606737E-02
0.63546575E-02
0.48139854E-02
0.36537596E-02
0.27772679E-02
0.21116654E-02
0.16075907E-02
0.12275965E-02
0.93199481E-03
0.70848560E-03
0.54388685E-03
0.41758572E-03
0.31878988E-03
0.24315591E-03
0.18701793E-03
0.14397518E-03
0.11042098E-03
0.85023676E-04
0.65770313E-04
0.50704901E-04
0.38973387E-04
0.30110785E-04
0.23280874E-04
0.17974849E-04
0.13899263E-04
0.10745129E-04
0.83119312E-05
0.64250485E-05
0.49525192E-05
0.38202138E-05
0.29479925E-05
0.22775109E-05
0.17549452E-05
0.13521060E-05
0.10449495E-05
0.80498188E-06
0.61834578E-06
0.47541957E-06
0.36584524E-06
0.28102281E-06
0.21545402E-06
0.16541685E-06
0.12687623E-06
0.97095153E-07
0.74200543E-07
0.56662177E-07
0.43332701E-07
0.33058598E-07
0.25177821E-07
0.19222457E-07
0.14716570E-07
0.11225636E-07
0.85579641E-08
0.65438606E-08
0.50257745E-08
