atomic number =   40
effective nuclear charge =   40
electron count =    2
net charge =   38
basis set = approximate basis set limit (UGBS)      
exchange correlation functional = PW91PW91            
cutoff radius (picometer) =  400
number of shells =   75
prepared by = Thomas A. Manz      
prepared date = July 2010           
net magnetization =    0
density in atomic units:
0.70570000E+04
0.26165348E+00
0.27662676E-03
0.14568134E-05
0.18564960E-06
0.18227581E-06
0.12719956E-07
0.36233988E-07
0.15276003E-07
0.11959507E-08
0.59920011E-08
0.53391322E-08
0.14837246E-08
0.87279732E-10
0.61844219E-09
0.10973394E-08
0.89941732E-09
0.41555023E-09
0.86598964E-10
0.80723796E-11
0.70272357E-10
0.14989200E-09
0.18038272E-09
0.15582284E-09
0.10365863E-09
0.51728687E-10
0.16623676E-10
0.17740693E-11
0.24025981E-11
0.10948179E-10
0.20280336E-10
0.26656838E-10
0.28587521E-10
0.26288666E-10
0.21372668E-10
0.15383569E-10
0.95883223E-11
0.50120992E-11
0.19888793E-11
0.40706501E-12
0.50746391E-13
0.53752928E-12
0.14640419E-11
0.25046621E-11
0.34098423E-11
0.40440862E-11
0.43516293E-11
0.43405323E-11
0.40608354E-11
0.35855943E-11
0.29997157E-11
0.23770599E-11
0.17708791E-11
0.12306104E-11
0.78859212E-12
0.44594967E-12
0.20656652E-12
0.65488881E-13
0.68465152E-14
0.12654881E-13
0.65271810E-13
0.14683402E-12
0.24283342E-12
0.34129088E-12
0.43242184E-12
0.50913662E-12
0.56704343E-12
0.60521938E-12
0.62317957E-12
0.62228873E-12
0.60496074E-12
0.57360226E-12
0.53145926E-12
0.48183327E-12
0.42822091E-12
