atomic number =   44
effective nuclear charge =   44
electron count =   12
net charge =   32
basis set = approximate basis set limit (UGBS)      
exchange correlation functional = PW91PW91            
cutoff radius (picometer) =  300
number of shells =   50
prepared by = Thomas A. Manz      
prepared date = July 2010           
net magnetization =    0
density in atomic units:
0.11288128E+05
0.77475090E+02
0.82191315E+01
0.30886731E+01
0.11255275E+01
0.30460683E+00
0.73161133E-01
0.18203070E-01
0.41898433E-02
0.94579463E-03
0.20101135E-03
0.39878920E-04
0.90795838E-05
0.21232108E-05
0.52597414E-06
0.13057041E-06
0.27313584E-07
0.44316057E-08
0.47440374E-09
0.61759198E-09
0.86139768E-09
0.68592015E-09
0.35589001E-09
0.10519118E-09
0.77385572E-11
0.30595058E-10
0.10279198E-09
0.16613809E-09
0.19554423E-09
0.18658002E-09
0.15102784E-09
0.10438671E-09
0.60770826E-10
0.27553548E-10
0.78579478E-11
0.62944631E-12
0.21896053E-11
0.87610440E-11
0.17012532E-10
0.24190866E-10
0.28909604E-10
0.30775171E-10
0.29880379E-10
0.26895092E-10
0.22549318E-10
0.17674666E-10
0.12837588E-10
0.85389196E-11
0.50655209E-11
0.25554476E-11
