atomic number =   66
effective nuclear charge =   66
electron count =   46
net charge =   20
basis set = approximate basis set limit (UGBS)      
exchange correlation functional = PW91PW91            
cutoff radius (picometer) =  300
number of shells =   50
prepared by = Thomas A. Manz      
prepared date = July 2010           
net magnetization =    0
density in atomic units:
0.42248184E+05
0.22369328E+03
0.50818619E+02
0.18554510E+02
0.12625986E+02
0.68096919E+01
0.30819380E+01
0.13412204E+01
0.54942358E+00
0.22373791E+00
0.88258542E-01
0.34003992E-01
0.14108129E-01
0.58019646E-02
0.24125529E-02
0.99663041E-03
0.40167617E-03
0.16948584E-03
0.70725306E-04
0.29974850E-04
0.13050387E-04
0.57952711E-05
0.26268617E-05
0.11939183E-05
0.53394086E-06
0.23268282E-06
0.98171043E-07
0.40593342E-07
0.15688151E-07
0.56748397E-08
0.20043929E-08
0.74034862E-09
0.34867256E-09
0.22423279E-09
0.16902951E-09
0.13083107E-09
0.10251917E-09
0.86170952E-10
0.82650463E-10
0.89497389E-10
0.10206570E-09
0.11610483E-09
0.12734497E-09
0.13357819E-09
0.13394251E-09
0.12859024E-09
0.11845638E-09
0.10497842E-09
0.89703411E-10
0.74229040E-10
