atomic number =   70
effective nuclear charge =   70
electron count =   30
net charge =   40
basis set = approximate basis set limit (UGBS)      
exchange correlation functional = PW91PW91            
cutoff radius (picometer) =  300
number of shells =   50
prepared by = Thomas A. Manz      
prepared date = July 2010           
net magnetization =    0
density in atomic units:
0.51013215E+05
0.21892963E+03
0.41565815E+02
0.65156889E+01
0.19715528E+01
0.65366668E+00
0.19687659E+00
0.59176527E-01
0.16322186E-01
0.43756794E-02
0.11014605E-02
0.25894641E-03
0.66972229E-04
0.16920158E-04
0.43116243E-05
0.11068470E-05
0.27577559E-06
0.78615891E-07
0.27160226E-07
0.13819458E-07
0.88859036E-08
0.54931517E-08
0.28282701E-08
0.10910272E-08
0.32411043E-09
0.27824001E-09
0.56961591E-09
0.87781166E-09
0.10460426E-08
0.10271968E-08
0.86508600E-09
0.63260602E-09
0.40229467E-09
0.21633345E-09
0.96038039E-10
0.40772080E-10
0.34249815E-10
0.58043428E-10
0.95002672E-10
0.13028960E-09
0.15538952E-09
0.16714928E-09
0.16508801E-09
0.15171535E-09
0.13060794E-09
0.10578519E-09
0.80283592E-10
0.56846697E-10
0.37192308E-10
0.22296751E-10
