atomic number =   75
effective nuclear charge =   75
electron count =   46
net charge =   29
basis set = approximate basis set limit (UGBS)      
exchange correlation functional = PW91PW91            
cutoff radius (picometer) =  300
number of shells =   50
prepared by = Thomas A. Manz      
prepared date = July 2010           
net magnetization =    0
density in atomic units:
0.63653195E+05
0.24608949E+03
0.46455704E+02
0.24625381E+02
0.13106941E+02
0.49985194E+01
0.16696142E+01
0.56360304E+00
0.18097073E+00
0.58669180E-01
0.18425038E-01
0.55568246E-02
0.18319809E-02
0.60184055E-03
0.20301627E-03
0.68911511E-04
0.22515236E-04
0.76304295E-05
0.24687154E-05
0.78957987E-06
0.25825673E-06
0.87702730E-07
0.31385831E-07
0.11547892E-07
0.43637356E-08
0.19773385E-08
0.13807686E-08
0.13242187E-08
0.13029945E-08
0.11653104E-08
0.92181673E-09
0.63469768E-09
0.37393813E-09
0.17687744E-09
0.59493722E-10
0.15034560E-10
0.21997267E-10
0.58460001E-10
0.10512801E-09
0.14604781E-09
0.17295623E-09
0.18348620E-09
0.17830176E-09
0.16082972E-09
0.13547628E-09
0.10691133E-09
0.78430165E-10
0.53020470E-10
0.32351722E-10
0.17274319E-10
