atomic number =   74
effective nuclear charge =   74
electron count =   48
net charge =   26
basis set = approximate basis set limit (UGBS)      
exchange correlation functional = PW91PW91            
cutoff radius (picometer) =  300
number of shells =   50
prepared by = Thomas A. Manz      
prepared date = July 2010           
net magnetization =    0
density in atomic units:
0.61062133E+05
0.24508078E+03
0.46698845E+02
0.24260141E+02
0.13248769E+02
0.53298798E+01
0.20282423E+01
0.88380492E+00
0.43223432E+00
0.23930334E+00
0.13815305E+00
0.80291465E-01
0.48294201E-01
0.28443741E-01
0.16661486E-01
0.95972233E-02
0.54200552E-02
0.31202536E-02
0.17617675E-02
0.98855444E-03
0.55463350E-03
0.31071392E-03
0.17523693E-03
0.99103396E-04
0.56000299E-04
0.31664484E-04
0.17971353E-04
0.10354911E-04
0.58993724E-05
0.33336817E-05
0.18862808E-05
0.10544173E-05
0.58652756E-06
0.32087880E-06
0.17257653E-06
0.92027399E-07
0.48284736E-07
0.24673419E-07
0.12179072E-07
0.59028782E-08
0.28320917E-08
0.13354482E-08
0.65486017E-09
0.34939440E-09
0.20773899E-09
0.13660097E-09
0.93589886E-10
0.63812018E-10
0.42902265E-10
0.30210418E-10
