atomic number =   32
effective nuclear charge =   32
electron count =    4
net charge =   28
basis set = approximate basis set limit (UGBS)      
exchange correlation functional = PW91PW91            
cutoff radius (picometer) =  300
number of shells =   50
prepared by = Thomas A. Manz      
prepared date = July 2010           
net magnetization =    0
density in atomic units:
0.38306560E+04
0.22969093E+02
0.45440135E+01
0.56106395E+00
0.60977716E-01
0.51272577E-02
0.41411896E-03
0.40084022E-04
0.35516568E-05
0.36627753E-06
0.48159510E-07
0.51954352E-08
0.37453388E-09
0.79238555E-09
0.90677654E-09
0.45282195E-09
0.82257631E-10
0.12700169E-10
0.94528531E-10
0.16860621E-09
0.17130999E-09
0.12131525E-09
0.61125299E-10
0.18684677E-10
0.15772606E-11
0.37831344E-11
0.14257505E-10
0.23936554E-10
0.28759401E-10
0.27837527E-10
0.22798981E-10
0.15949729E-10
0.94223076E-11
0.43699415E-11
0.13095557E-11
0.11860489E-12
0.26598813E-12
0.11929918E-11
0.24007059E-11
0.34730981E-11
0.41954331E-11
0.44991532E-11
0.43960174E-11
0.39770739E-11
0.33512284E-11
0.26401535E-11
0.19286792E-11
0.12922170E-11
0.77427995E-12
0.39676387E-12
