atomic number =   17
effective nuclear charge =   17
electron count =    4
net charge =   13
basis set = approximate basis set limit (UGBS)      
exchange correlation functional = PW91PW91            
cutoff radius (picometer) =  300
number of shells =   50
prepared by = Thomas A. Manz      
prepared date = July 2010           
net magnetization =    0
density in atomic units:
0.58741071E+03
0.11877425E+02
0.41481695E+01
0.23463495E+01
0.10781010E+01
0.40942177E+00
0.14727928E+00
0.54688454E-01
0.19337462E-01
0.68274676E-02
0.23341428E-02
0.77301724E-03
0.27620545E-03
0.96201344E-04
0.33409364E-04
0.11449981E-04
0.37847860E-05
0.13229634E-05
0.45434791E-06
0.15766287E-06
0.55949325E-07
0.20165176E-07
0.74447466E-08
0.27903044E-08
0.10552530E-08
0.40727965E-09
0.16347922E-09
0.70824187E-10
0.32347239E-10
0.15758974E-10
0.82115538E-11
0.44008369E-11
0.23883814E-11
0.13081981E-11
0.80566044E-12
0.64021184E-12
0.68833372E-12
0.83006713E-12
0.98550747E-12
0.11030020E-11
0.11553824E-11
0.11385459E-11
0.10596854E-11
0.93529383E-12
0.78429965E-12
0.62718954E-12
0.47734923E-12
0.34603722E-12
0.24083253E-12
0.16366300E-12
