atomic number =   53
effective nuclear charge =   53
electron count =   10
net charge =   43
basis set = approximate basis set limit (UGBS)      
exchange correlation functional = PW91PW91            
cutoff radius (picometer) =  300
number of shells =   50
prepared by = Thomas A. Manz      
prepared date = July 2010           
net magnetization =    0
density in atomic units:
0.20148131E+05
0.52539600E+02
0.11299081E+01
0.17208105E-01
0.28175200E-03
0.42338770E-05
0.21735889E-06
0.10476220E-06
0.96798161E-08
0.40679488E-07
0.26007159E-07
0.30253642E-08
0.21265187E-08
0.66313630E-08
0.62839680E-08
0.29068647E-08
0.49652721E-09
0.99697549E-10
0.64426148E-09
0.11109463E-08
0.11136317E-08
0.78326567E-09
0.39355499E-09
0.12080459E-09
0.11315152E-10
0.25450270E-10
0.92288774E-10
0.15396784E-09
0.18465446E-09
0.17869645E-09
0.14649551E-09
0.10268866E-09
0.60907300E-10
0.28495371E-10
0.87711548E-11
0.98383649E-12
0.17640810E-11
0.75571138E-11
0.15190686E-10
0.22003120E-10
0.26605957E-10
0.28567721E-10
0.27967493E-10
0.25346272E-10
0.21395595E-10
0.16888598E-10
0.12373877E-10
0.83189584E-11
0.50160869E-11
0.25986164E-11
