atomic number =  108
effective nuclear charge =  108
electron count =   46
net charge =   62
basis set = approximate basis set limit (UGBS)      
exchange correlation functional = PW91PW91            
cutoff radius (picometer) =  300
number of shells =   50
prepared by = Thomas A. Manz      
prepared date = July 2010           
net magnetization =    0
density in atomic units:
0.18822816E+06
0.23794475E+03
0.73454292E+02
0.14635464E+02
0.19180285E+01
0.17141551E+00
0.14104716E-01
0.15298546E-02
0.14700716E-03
0.11568111E-04
0.10613921E-05
0.14351394E-06
0.40537287E-07
0.11701490E-06
0.14188160E-06
0.92319397E-07
0.35689297E-07
0.11184551E-07
0.11385803E-07
0.19123860E-07
0.22497538E-07
0.19402188E-07
0.13016276E-07
0.68885746E-08
0.29649392E-08
0.15011992E-08
0.16999141E-08
0.25223770E-08
0.32546192E-08
0.35220402E-08
0.32856002E-08
0.26977396E-08
0.19755639E-08
0.12854163E-08
0.74567330E-09
0.40320042E-09
0.23869973E-09
0.20940435E-09
0.26563790E-09
0.35705974E-09
0.44557655E-09
0.50947641E-09
0.53616239E-09
0.52572541E-09
0.48443127E-09
0.42203863E-09
0.34797781E-09
0.27192010E-09
0.20113748E-09
0.14113211E-09
