atomic number =   75
effective nuclear charge =   75
electron count =   48
net charge =   27
basis set = approximate basis set limit (UGBS)      
exchange correlation functional = PW91PW91            
cutoff radius (picometer) =  300
number of shells =   50
prepared by = Thomas A. Manz      
prepared date = July 2010           
net magnetization =    0
density in atomic units:
0.63729426E+05
0.24658092E+03
0.46853596E+02
0.24935148E+02
0.13130146E+02
0.51049771E+01
0.19105606E+01
0.83362627E+00
0.41052580E+00
0.22724435E+00
0.12975496E+00
0.73960423E-01
0.43506958E-01
0.25001280E-01
0.14282565E-01
0.80232043E-02
0.44165007E-02
0.24817516E-02
0.13668720E-02
0.74786681E-03
0.40905923E-03
0.22337498E-03
0.12283702E-03
0.67765715E-04
0.37374648E-04
0.20647243E-04
0.11464120E-04
0.64732062E-05
0.36161450E-05
0.20044570E-05
0.11126252E-05
0.60945177E-06
0.33157698E-06
0.17684795E-06
0.92274540E-07
0.47449440E-07
0.23805345E-07
0.11513937E-07
0.53016138E-08
0.23750624E-08
0.10598020E-08
0.48982429E-09
0.26557898E-09
0.17845667E-09
0.13692485E-09
0.10735944E-09
0.79505728E-10
0.53671675E-10
0.32494410E-10
0.18336693E-10
