atomic number =   69
effective nuclear charge =   69
electron count =    2
net charge =   67
basis set = approximate basis set limit (UGBS)      
exchange correlation functional = PW91PW91            
cutoff radius (picometer) =  300
number of shells =   50
prepared by = Thomas A. Manz      
prepared date = July 2010           
net magnetization =    0
density in atomic units:
0.41043270E+05
0.11066946E-03
0.21347363E-04
0.69812218E-05
0.15809688E-05
0.42230724E-06
0.30254245E-06
0.15948923E-06
0.12013152E-07
0.54257775E-07
0.36266943E-07
0.44105408E-08
0.25653912E-08
0.86910443E-08
0.84299900E-08
0.39629002E-08
0.69149170E-09
0.11077268E-09
0.81862206E-09
0.14477978E-08
0.14663633E-08
0.10381425E-08
0.52456689E-09
0.16190572E-09
0.14151981E-10
0.30476711E-10
0.11768311E-09
0.19912971E-09
0.24029770E-09
0.23334737E-09
0.19167876E-09
0.13457664E-09
0.79896638E-10
0.37373445E-10
0.11423073E-10
0.11047512E-11
0.20318361E-11
0.95572873E-11
0.19521973E-10
0.28445656E-10
0.34500420E-10
0.37112865E-10
0.36351481E-10
0.32956225E-10
0.27825310E-10
0.21965894E-10
0.16086478E-10
0.10811385E-10
0.65060678E-11
0.33573417E-11
