atomic number =   59
effective nuclear charge =   59
electron count =   28
net charge =   31
basis set = approximate basis set limit (UGBS)      
exchange correlation functional = PW91PW91            
cutoff radius (picometer) =  300
number of shells =   50
prepared by = Thomas A. Manz      
prepared date = July 2010           
net magnetization =    0
density in atomic units:
0.29221510E+05
0.17390297E+03
0.56682507E+02
0.11597103E+02
0.18615707E+01
0.22780044E+00
0.26747469E-01
0.36792238E-02
0.45299975E-03
0.55849148E-04
0.75742664E-05
0.11392551E-05
0.20903235E-06
0.38696911E-07
0.10572015E-07
0.42911243E-08
0.15726646E-08
0.89284058E-09
0.12375170E-08
0.16247763E-08
0.15817312E-08
0.11800468E-08
0.69454881E-09
0.32737418E-09
0.14687891E-09
0.12088126E-09
0.17253944E-09
0.23240176E-09
0.26429722E-09
0.25641875E-09
0.21727734E-09
0.16240369E-09
0.10787864E-09
0.63142956E-10
0.33257654E-10
0.18330143E-10
0.14827781E-10
0.18632108E-10
0.25869759E-10
0.33141868E-10
0.38418223E-10
0.40853876E-10
0.40279315E-10
0.37179988E-10
0.32297724E-10
0.26547516E-10
0.20586872E-10
0.15059537E-10
0.10357321E-10
0.67224212E-11
