atomic number =   68
effective nuclear charge =   68
electron count =   30
net charge =   38
basis set = approximate basis set limit (UGBS)      
exchange correlation functional = PW91PW91            
cutoff radius (picometer) =  300
number of shells =   50
prepared by = Thomas A. Manz      
prepared date = July 2010           
net magnetization =    0
density in atomic units:
0.46475555E+05
0.21275462E+03
0.44820198E+02
0.71836438E+01
0.21059873E+01
0.73202288E+00
0.23708421E+00
0.75999662E-01
0.22248348E-01
0.63048624E-02
0.16809928E-02
0.42208933E-03
0.11649314E-03
0.31410742E-04
0.84801795E-05
0.22660940E-05
0.57245575E-06
0.15639162E-06
0.45702862E-07
0.17619248E-07
0.93246673E-08
0.53729505E-08
0.27643683E-08
0.11192296E-08
0.35610598E-09
0.24434205E-09
0.45398199E-09
0.70574624E-09
0.85623192E-09
0.85585189E-09
0.73370304E-09
0.54763694E-09
0.35762157E-09
0.19993852E-09
0.94370747E-10
0.42320931E-10
0.31514999E-10
0.47291088E-10
0.75618192E-10
0.10409237E-09
0.12529622E-09
0.13612045E-09
0.13578154E-09
0.12604390E-09
0.10967394E-09
0.89917476E-10
0.69219734E-10
0.49914003E-10
0.33459471E-10
0.20749760E-10
