atomic number =   30
effective nuclear charge =   30
electron count =   10
net charge =   20
basis set = approximate basis set limit (UGBS)      
exchange correlation functional = PW91PW91            
cutoff radius (picometer) =  300
number of shells =   50
prepared by = Thomas A. Manz      
prepared date = July 2010           
net magnetization =    0
density in atomic units:
0.32657527E+04
0.82608437E+02
0.16474846E+02
0.24163404E+01
0.32507312E+00
0.35252772E-01
0.37522349E-02
0.47233727E-03
0.54423141E-04
0.66189964E-05
0.88849663E-06
0.11631851E-06
0.14872400E-07
0.18951372E-08
0.11276924E-08
0.70341982E-09
0.21368650E-09
0.61721302E-10
0.14226456E-09
0.24667818E-09
0.26407651E-09
0.20231589E-09
0.11587817E-09
0.47593693E-10
0.13680434E-10
0.95884706E-11
0.21027565E-10
0.34460986E-10
0.42672740E-10
0.43073937E-10
0.37079523E-10
0.27668645E-10
0.17950492E-10
0.98291791E-11
0.43694154E-11
0.16696898E-11
0.11146097E-11
0.19533778E-11
0.34592967E-11
0.49865251E-11
0.61428623E-11
0.67622782E-11
0.67971709E-11
0.63395591E-11
0.55292121E-11
0.45317083E-11
0.34801237E-11
0.24934551E-11
0.16498477E-11
0.99721533E-12
