atomic number =   73
effective nuclear charge =   73
electron count =   46
net charge =   27
basis set = approximate basis set limit (UGBS)      
exchange correlation functional = PW91PW91            
cutoff radius (picometer) =  300
number of shells =   50
prepared by = Thomas A. Manz      
prepared date = July 2010           
net magnetization =    0
density in atomic units:
0.58402508E+05
0.24286986E+03
0.46406170E+02
0.23242186E+02
0.13287180E+02
0.54906268E+01
0.19720703E+01
0.70981300E+00
0.24324006E+00
0.84031306E-01
0.28170109E-01
0.91327522E-02
0.32268427E-02
0.11340211E-02
0.40636497E-03
0.14541371E-03
0.50143703E-04
0.18008221E-04
0.62764498E-05
0.22077759E-05
0.80820706E-06
0.31081620E-06
0.12691886E-06
0.53812073E-07
0.23094398E-07
0.10051437E-07
0.46398898E-08
0.25099882E-08
0.16305280E-08
0.12076378E-08
0.91741881E-09
0.65866895E-09
0.43299717E-09
0.25517824E-09
0.13863972E-09
0.82215991E-10
0.71552680E-10
0.89959880E-10
0.12157646E-09
0.15244039E-09
0.17422364E-09
0.18354210E-09
0.17996830E-09
0.16556498E-09
0.14357632E-09
0.11799803E-09
0.91641091E-10
0.67270092E-10
0.46596987E-10
0.30636306E-10
