atomic number =   67
effective nuclear charge =   67
electron count =    2
net charge =   65
basis set = approximate basis set limit (UGBS)      
exchange correlation functional = PW91PW91            
cutoff radius (picometer) =  300
number of shells =   50
prepared by = Thomas A. Manz      
prepared date = July 2010           
net magnetization =    0
density in atomic units:
0.37383273E+05
0.13458995E-03
0.19043071E-04
0.62545487E-05
0.14226140E-05
0.37834124E-06
0.27244846E-06
0.14325917E-06
0.10822863E-07
0.48860265E-07
0.32622054E-07
0.39606647E-08
0.23141014E-08
0.78281515E-08
0.75888957E-08
0.35660102E-08
0.62168193E-09
0.99934457E-10
0.73768019E-09
0.13040152E-08
0.13204674E-08
0.93466934E-09
0.47217485E-09
0.14570442E-09
0.12721476E-10
0.27477506E-10
0.10602778E-09
0.17938595E-09
0.21642900E-09
0.21014075E-09
0.17261784E-09
0.12118088E-09
0.71941050E-10
0.33647619E-10
0.10280462E-10
0.99351148E-12
0.18317396E-11
0.86120980E-11
0.17585492E-10
0.25621108E-10
0.31076305E-10
0.33433322E-10
0.32738035E-10
0.29678666E-10
0.25060469E-10
0.19781904E-10
0.14487439E-10
0.97360514E-11
0.58585446E-11
0.30229805E-11
