atomic number =   67
effective nuclear charge =   67
electron count =    4
net charge =   63
basis set = approximate basis set limit (UGBS)      
exchange correlation functional = PW91PW91            
cutoff radius (picometer) =  300
number of shells =   50
prepared by = Thomas A. Manz      
prepared date = July 2010           
net magnetization =    0
density in atomic units:
0.42484441E+05
0.72724628E+01
0.35926037E-01
0.84974126E-04
0.27257870E-05
0.51209696E-06
0.38371115E-06
0.19525665E-06
0.15635358E-07
0.69618672E-07
0.45602430E-07
0.53806808E-08
0.34178871E-08
0.11235650E-07
0.10783843E-07
0.50255968E-08
0.86098828E-09
0.14897943E-09
0.10704577E-08
0.18745159E-08
0.18894595E-08
0.13327829E-08
0.67063155E-09
0.20544211E-09
0.17565062E-10
0.40423758E-10
0.15360013E-09
0.25857880E-09
0.31116984E-09
0.30156838E-09
0.24737287E-09
0.17342404E-09
0.10277332E-09
0.47944874E-10
0.14566287E-10
0.13825340E-11
0.26953155E-11
0.12495111E-10
0.25405662E-10
0.36938536E-10
0.44748566E-10
0.48110831E-10
0.47062448E-10
0.42641921E-10
0.35990204E-10
0.28391182E-10
0.20783361E-10
0.13957228E-10
0.83910413E-11
0.43225892E-11
