atomic number =   48
effective nuclear charge =   48
electron count =    4
net charge =   44
basis set = approximate basis set limit (UGBS)      
exchange correlation functional = PW91PW91            
cutoff radius (picometer) =  300
number of shells =   50
prepared by = Thomas A. Manz      
prepared date = July 2010           
net magnetization =    0
density in atomic units:
0.14319529E+05
0.20690784E+02
0.77073705E+00
0.18181896E-01
0.45652894E-03
0.87000062E-05
0.10210513E-06
0.54683749E-07
0.74782598E-08
0.28594362E-07
0.17069585E-07
0.17877412E-08
0.15683337E-08
0.46146367E-08
0.42581241E-08
0.19209383E-08
0.30764077E-09
0.70546277E-10
0.45571089E-09
0.77075285E-09
0.76378337E-09
0.53182658E-09
0.26371222E-09
0.78638804E-10
0.62514499E-11
0.18020705E-10
0.64861408E-10
0.10725350E-09
0.12785073E-09
0.12311425E-09
0.10047474E-09
0.70078145E-10
0.41278564E-10
0.19078074E-10
0.56798867E-11
0.50669717E-12
0.11998095E-11
0.52984765E-11
0.10610855E-10
0.15316380E-10
0.18473468E-10
0.19790523E-10
0.19327061E-10
0.17477025E-10
0.14721706E-10
0.11594631E-10
0.84684681E-11
0.56729951E-11
0.33999763E-11
0.17428036E-11
