atomic number =  103
effective nuclear charge =  103
electron count =   62
net charge =   41
basis set = approximate basis set limit (UGBS)      
exchange correlation functional = PW91PW91            
cutoff radius (picometer) =  300
number of shells =   50
prepared by = Thomas A. Manz      
prepared date = July 2010           
net magnetization =    0
density in atomic units:
0.16599203E+06
0.33570749E+03
0.11813910E+03
0.31214493E+02
0.70861063E+01
0.16721420E+01
0.45801330E+00
0.13908496E+00
0.39040018E-01
0.10588302E-01
0.27227311E-02
0.67580305E-03
0.19177062E-03
0.55172335E-04
0.16080958E-04
0.44160774E-05
0.97213649E-06
0.15635747E-06
0.15712130E-07
0.25209344E-07
0.35823717E-07
0.28782969E-07
0.15372025E-07
0.52817537E-08
0.15401814E-08
0.27380627E-08
0.58836709E-08
0.85346805E-08
0.96480148E-08
0.90661354E-08
0.73250503E-08
0.51134146E-08
0.30625855E-08
0.14979157E-08
0.55946808E-09
0.19932764E-09
0.24884592E-09
0.53464755E-09
0.90326996E-09
0.12272141E-08
0.14402179E-08
0.15230153E-08
0.14780694E-08
0.13350244E-08
0.11279053E-08
0.89428431E-09
0.66112521E-09
0.45258791E-09
0.28219871E-09
0.15700836E-09
