atomic number =   76
effective nuclear charge =   76
electron count =   12
net charge =   64
basis set = approximate basis set limit (UGBS)      
exchange correlation functional = PW91PW91            
cutoff radius (picometer) =  300
number of shells =   50
prepared by = Thomas A. Manz      
prepared date = July 2010           
net magnetization =    0
density in atomic units:
0.65537969E+05
0.36018333E+02
0.41697116E+01
0.24859262E+00
0.11444326E-01
0.33694072E-03
0.12746908E-04
0.13569054E-05
0.57904838E-07
0.16606108E-06
0.11564708E-06
0.14410866E-07
0.88759613E-08
0.28788854E-07
0.27731311E-07
0.13002825E-07
0.22911140E-08
0.43700515E-09
0.27971723E-08
0.48663109E-08
0.49044373E-08
0.34653298E-08
0.17510127E-08
0.54416310E-09
0.54858226E-10
0.11210195E-09
0.40446932E-09
0.67632072E-09
0.81275991E-09
0.78795409E-09
0.64699451E-09
0.45442483E-09
0.27027336E-09
0.12708957E-09
0.39688301E-10
0.49184901E-11
0.80055849E-11
0.33317439E-10
0.66851753E-10
0.96868728E-10
0.11722880E-09
0.12600751E-09
0.12343168E-09
0.11190614E-09
0.94539265E-10
0.74689525E-10
0.54778185E-10
0.36907286E-10
0.22303714E-10
0.11609456E-10
