atomic number =   67
effective nuclear charge =   67
electron count =   54
net charge =   13
basis set = approximate basis set limit (UGBS)      
exchange correlation functional = PW91PW91            
cutoff radius (picometer) =  300
number of shells =   50
prepared by = Thomas A. Manz      
prepared date = July 2010           
net magnetization =    0
density in atomic units:
0.44389738E+05
0.22854590E+03
0.50146927E+02
0.19988359E+02
0.13229342E+02
0.67024198E+01
0.30321469E+01
0.15300769E+01
0.90457398E+00
0.63289583E+00
0.47480628E+00
0.36050439E+00
0.27588740E+00
0.20615067E+00
0.15206115E+00
0.11003463E+00
0.78324296E-01
0.56127526E-01
0.39642163E-01
0.27840879E-01
0.19521698E-01
0.13658086E-01
0.95817698E-02
0.67205303E-02
0.47035334E-02
0.32871841E-02
0.23009577E-02
0.16251775E-02
0.11403533E-02
0.79816591E-03
0.56116201E-03
0.39375934E-03
0.27745473E-03
0.19518558E-03
0.13738222E-03
0.97302312E-04
0.69170623E-04
0.49121496E-04
0.34726800E-04
0.24660199E-04
0.17582337E-04
0.12457215E-04
0.88517791E-05
0.63000903E-05
0.44677445E-05
0.31740797E-05
0.22477223E-05
0.15888269E-05
0.11218749E-05
0.79342010E-06
