atomic number =  109
effective nuclear charge =  109
electron count =    4
net charge =  105
basis set = approximate basis set limit (UGBS)      
exchange correlation functional = PW91PW91            
cutoff radius (picometer) =  300
number of shells =   50
prepared by = Thomas A. Manz      
prepared date = July 2010           
net magnetization =    0
density in atomic units:
0.18309838E+06
0.11847264E+00
0.21812323E-03
0.59795384E-04
0.13404846E-04
0.36321335E-05
0.25629652E-05
0.13607289E-05
0.10187126E-06
0.46014407E-06
0.30839664E-06
0.37642337E-07
0.21701917E-07
0.73726603E-07
0.71583848E-07
0.33676439E-07
0.58847087E-08
0.93810193E-09
0.69430190E-08
0.12286701E-07
0.12448693E-07
0.88149017E-08
0.44552046E-08
0.13756797E-08
0.12040158E-09
0.25843322E-09
0.99863773E-09
0.16902941E-08
0.20397459E-08
0.19810538E-08
0.16272487E-08
0.11425828E-08
0.67841721E-09
0.31736594E-09
0.97014438E-10
0.93895742E-11
0.17239269E-10
0.81128881E-10
0.16570423E-09
0.24146787E-09
0.29288866E-09
0.31506250E-09
0.30862249E-09
0.27979299E-09
0.23624022E-09
0.18650076E-09
0.13659594E-09
0.91781402E-10
0.55238408E-10
0.28506243E-10
