atomic number =   74
effective nuclear charge =   74
electron count =   54
net charge =   20
basis set = approximate basis set limit (UGBS)      
exchange correlation functional = PW91PW91            
cutoff radius (picometer) =  300
number of shells =   50
prepared by = Thomas A. Manz      
prepared date = July 2010           
net magnetization =    0
density in atomic units:
0.61063508E+05
0.24613934E+03
0.47406784E+02
0.25040699E+02
0.13381120E+02
0.54033275E+01
0.23471713E+01
0.13624194E+01
0.93662113E+00
0.68339050E+00
0.48696572E+00
0.33437631E+00
0.22900119E+00
0.15206587E+00
0.99843405E-01
0.64429469E-01
0.40925719E-01
0.26387338E-01
0.16761063E-01
0.10598934E-01
0.67028701E-02
0.42337533E-02
0.26876454E-02
0.17088092E-02
0.10851560E-02
0.68910612E-03
0.43889313E-03
0.28296118E-03
0.18095251E-03
0.11522997E-03
0.73694813E-04
0.46918318E-04
0.29956605E-04
0.19044837E-04
0.12086272E-04
0.77187224E-05
0.49460391E-05
0.31630518E-05
0.20102223E-05
0.12852917E-05
0.82656334E-06
0.52754677E-06
0.33811776E-06
0.21735742E-06
0.13913697E-06
0.89287916E-07
0.57038378E-07
0.36361090E-07
0.23145313E-07
0.14784382E-07
