atomic number =   38
effective nuclear charge =   38
electron count =   12
net charge =   26
basis set = approximate basis set limit (UGBS)      
exchange correlation functional = PW91PW91            
cutoff radius (picometer) =  300
number of shells =   50
prepared by = Thomas A. Manz      
prepared date = May 2010            
net magnetization =    0
density in atomic units:
0.70417749E+04
0.87475075E+02
0.98617306E+01
0.29292235E+01
0.14395057E+01
0.57465804E+00
0.20295925E+00
0.71319476E-01
0.23257429E-01
0.74443142E-02
0.22780551E-02
0.66853414E-03
0.21358162E-03
0.66401386E-04
0.20481299E-04
0.61741562E-05
0.17513644E-05
0.51933256E-06
0.14834399E-06
0.42760679E-07
0.12997453E-07
0.42863562E-08
0.15895735E-08
0.65908351E-09
0.30280042E-09
0.15894668E-09
0.99936705E-10
0.74804586E-10
0.60532412E-10
0.48750785E-10
0.37206679E-10
0.25997718E-10
0.16422506E-10
0.92103365E-11
0.47360913E-11
0.27697185E-11
0.26194502E-11
0.35692549E-11
0.49696965E-11
0.62658654E-11
0.71457202E-11
0.74881950E-11
0.72887234E-11
0.66518362E-11
0.57053307E-11
0.46249840E-11
0.35272616E-11
0.25200645E-11
0.16752475E-11
0.10330601E-11
