atomic number =   27
effective nuclear charge =   27
electron count =   12
net charge =   15
basis set = approximate basis set limit (UGBS)      
exchange correlation functional = PW91PW91            
cutoff radius (picometer) =  300
number of shells =   50
prepared by = Thomas A. Manz      
prepared date = July 2010           
net magnetization =    0
density in atomic units:
0.23761750E+04
0.76301750E+02
0.19699154E+02
0.41492705E+01
0.13342972E+01
0.72557306E+00
0.45483309E+00
0.27663085E+00
0.15632582E+00
0.85508317E-01
0.44720829E-01
0.22643719E-01
0.11864346E-01
0.60771294E-02
0.31151539E-02
0.15824278E-02
0.79160224E-03
0.40904406E-03
0.20788659E-03
0.10533256E-03
0.53500877E-04
0.27158216E-04
0.13902876E-04
0.71494806E-05
0.36808121E-05
0.19035401E-05
0.99324268E-06
0.53023444E-06
0.28097233E-06
0.14814485E-06
0.78415525E-07
0.40931386E-07
0.21162776E-07
0.10648022E-07
0.51752949E-08
0.24334426E-08
0.10825978E-08
0.44042903E-09
0.15484287E-09
0.44961458E-10
0.10887881E-10
0.53833851E-11
0.81641300E-11
0.11001799E-10
0.11682569E-10
0.10340465E-10
0.78462193E-11
0.51068915E-11
0.27746483E-11
0.12158282E-11
