atomic number =   70
effective nuclear charge =   70
electron count =   18
net charge =   52
basis set = approximate basis set limit (UGBS)      
exchange correlation functional = PW91PW91            
cutoff radius (picometer) =  300
number of shells =   50
prepared by = Thomas A. Manz      
prepared date = July 2010           
net magnetization =    0
density in atomic units:
0.50474875E+05
0.10191031E+03
0.21734022E+02
0.21604636E+01
0.16612987E+00
0.88378917E-02
0.44401342E-03
0.34104603E-04
0.21559399E-05
0.19913202E-06
0.10809597E-06
0.18288151E-07
0.10755137E-07
0.29738908E-07
0.29309021E-07
0.14739950E-07
0.34133456E-08
0.88512353E-09
0.29169045E-08
0.49971844E-08
0.51625371E-08
0.37964147E-08
0.20556594E-08
0.75908879E-09
0.17089832E-09
0.15756969E-09
0.41875647E-09
0.69015504E-09
0.84166246E-09
0.83351692E-09
0.70286305E-09
0.51147842E-09
0.32075340E-09
0.16637183E-09
0.66538761E-10
0.20927282E-10
0.16055811E-10
0.36592073E-10
0.68207689E-10
0.98528956E-10
0.12045066E-09
0.13125918E-09
0.13051500E-09
0.12032490E-09
0.10362017E-09
0.83731057E-10
0.63197399E-10
0.44269526E-10
0.28387150E-10
0.16361783E-10
