atomic number =   40
effective nuclear charge =   40
electron count =   36
net charge =    4
basis set = approximate basis set limit (UGBS)      
exchange correlation functional = PW91PW91            
cutoff radius (picometer) =  300
number of shells =   50
prepared by = Thomas A. Manz      
prepared date = July 2010           
net magnetization =    0
density in atomic units:
0.83712197E+04
0.11221133E+03
0.38234550E+02
0.21852701E+02
0.10211102E+02
0.40246334E+01
0.17817045E+01
0.10586511E+01
0.76012135E+00
0.59157830E+00
0.45575464E+00
0.34019291E+00
0.25185686E+00
0.18080245E+00
0.12794934E+00
0.88785000E-01
0.60578726E-01
0.41721385E-01
0.28309308E-01
0.19108495E-01
0.12887270E-01
0.86765150E-02
0.58635673E-02
0.39647603E-02
0.26761105E-02
0.18046505E-02
0.12193667E-02
0.83224423E-03
0.56387344E-03
0.38077813E-03
0.25823837E-03
0.17460638E-03
0.11847876E-03
0.80175509E-04
0.54227236E-04
0.36902704E-04
0.25193152E-04
0.17168401E-04
0.11633491E-04
0.79181891E-05
0.54112757E-05
0.36704923E-05
0.24965659E-05
0.17007468E-05
0.11535459E-05
0.78385159E-06
0.53057437E-06
0.35869047E-06
0.24227342E-06
0.16422374E-06
