atomic number =   57
effective nuclear charge =   57
electron count =    4
net charge =   53
basis set = approximate basis set limit (UGBS)      
exchange correlation functional = PW91PW91            
cutoff radius (picometer) =  300
number of shells =   50
prepared by = Thomas A. Manz      
prepared date = July 2010           
net magnetization =    0
density in atomic units:
0.25125029E+05
0.13818870E+02
0.19872104E+00
0.17144855E-02
0.21125616E-04
0.65041144E-06
0.24157725E-06
0.12740739E-06
0.10473577E-07
0.46553705E-07
0.30247548E-07
0.35102838E-08
0.23404731E-08
0.75774746E-08
0.72308621E-08
0.33519600E-08
0.56732063E-09
0.10321473E-09
0.72888134E-09
0.12682053E-08
0.12743266E-08
0.89664243E-09
0.44985871E-09
0.13702861E-09
0.11522114E-10
0.27855721E-10
0.10463902E-09
0.17548034E-09
0.21072516E-09
0.20396886E-09
0.16710908E-09
0.11702730E-09
0.69256885E-10
0.32240786E-10
0.97474962E-11
0.91117749E-12
0.18617022E-11
0.85313631E-11
0.17282276E-10
0.25084174E-10
0.30356544E-10
0.32596193E-10
0.31889720E-10
0.28877876E-10
0.24360127E-10
0.19212796E-10
0.14053324E-10
0.94340230E-11
0.56667882E-11
0.29160114E-11
