atomic number =   51
effective nuclear charge =   51
electron count =   48
net charge =    3
basis set = approximate basis set limit (UGBS)      
exchange correlation functional = PW91PW91            
cutoff radius (picometer) =  300
number of shells =   50
prepared by = Thomas A. Manz      
prepared date = July 2010           
net magnetization =    0
density in atomic units:
0.18343186E+05
0.15166092E+03
0.60666988E+02
0.19167482E+02
0.70780797E+01
0.46275201E+01
0.35838344E+01
0.25884709E+01
0.17135564E+01
0.10920345E+01
0.67528367E+00
0.41611630E+00
0.26968127E+00
0.17744775E+00
0.12072685E+00
0.84238127E-01
0.60161348E-01
0.44674829E-01
0.33562347E-01
0.25554527E-01
0.19676205E-01
0.15250364E-01
0.11907433E-01
0.93264431E-02
0.73097148E-02
0.57298345E-02
0.44993167E-02
0.35548874E-02
0.27952732E-02
0.21932388E-02
0.17247517E-02
0.13531910E-02
0.10635292E-02
0.83376293E-03
0.65302686E-03
0.51295746E-03
0.40342717E-03
0.31670107E-03
0.24757560E-03
0.19405095E-03
0.15246059E-03
0.11923283E-03
0.93483141E-04
0.73404401E-04
0.57540710E-04
0.45197168E-04
0.35450372E-04
0.27804506E-04
0.21805125E-04
0.17135797E-04
