atomic number =   36
effective nuclear charge =   36
electron count =    4
net charge =   32
basis set = approximate basis set limit (UGBS)      
exchange correlation functional = PW91PW91            
cutoff radius (picometer) =  300
number of shells =   50
prepared by = Thomas A. Manz      
prepared date = July 2010           
net magnetization =    0
density in atomic units:
0.56007314E+04
0.24720461E+02
0.32368462E+01
0.26698270E+00
0.20050278E-01
0.11227183E-02
0.60438364E-04
0.42989695E-05
0.26485375E-06
0.20811559E-07
0.41922177E-08
0.44813028E-09
0.22897241E-09
0.73027889E-09
0.70060407E-09
0.32551925E-09
0.55077557E-10
0.10094862E-10
0.71228433E-10
0.12388719E-09
0.12445275E-09
0.87551091E-10
0.43905091E-10
0.13357620E-10
0.11168265E-11
0.27349013E-11
0.10252929E-10
0.17181393E-10
0.20627659E-10
0.19957105E-10
0.16346313E-10
0.11445263E-10
0.67705988E-11
0.31499473E-11
0.95117729E-12
0.88458592E-13
0.18309575E-12
0.83684714E-12
0.16934512E-11
0.24574119E-11
0.29727312E-11
0.31935923E-11
0.31219051E-11
0.28274410E-11
0.23848827E-11
0.18805589E-11
0.13752641E-11
0.92304278E-12
0.55435078E-12
0.28519637E-12
