atomic number =   74
effective nuclear charge =   74
electron count =   30
net charge =   44
basis set = approximate basis set limit (UGBS)      
exchange correlation functional = PW91PW91            
cutoff radius (picometer) =  300
number of shells =   50
prepared by = Thomas A. Manz      
prepared date = July 2010           
net magnetization =    0
density in atomic units:
0.60931352E+05
0.22827296E+03
0.35322666E+02
0.55483880E+01
0.17173414E+01
0.50081754E+00
0.12813208E+00
0.33231236E-01
0.79502650E-02
0.18592949E-02
0.40495134E-03
0.80015467E-04
0.17277767E-04
0.36245917E-05
0.79170150E-06
0.18764166E-06
0.47019995E-07
0.16349981E-07
0.10095144E-07
0.88995371E-08
0.72421007E-08
0.47098863E-08
0.23038487E-08
0.73911094E-09
0.15005754E-09
0.26101349E-09
0.65379652E-09
0.99991893E-09
0.11574490E-08
0.11003459E-08
0.89378344E-09
0.62438521E-09
0.37172304E-09
0.17802070E-09
0.61547607E-10
0.16772354E-10
0.22974284E-10
0.58627360E-10
0.10463215E-09
0.14513168E-09
0.17190842E-09
0.18265360E-09
0.17750190E-09
0.16029135E-09
0.13516058E-09
0.10679963E-09
0.78520065E-10
0.53229126E-10
0.32627314E-10
0.17560398E-10
