atomic number =   38
effective nuclear charge =   38
electron count =    4
net charge =   34
basis set = approximate basis set limit (UGBS)      
exchange correlation functional = PW91PW91            
cutoff radius (picometer) =  300
number of shells =   50
prepared by = Thomas A. Manz      
prepared date = May 2010            
net magnetization =    0
density in atomic units:
0.66756182E+04
0.24913095E+02
0.26484773E+01
0.17823364E+00
0.11131216E-01
0.50728960E-03
0.21782234E-04
0.13465394E-05
0.76394656E-07
0.95484216E-08
0.36477168E-08
0.39460579E-09
0.27307184E-09
0.86883445E-09
0.82367141E-09
0.37973988E-09
0.63612504E-10
0.12332561E-10
0.84417758E-10
0.14580549E-09
0.14602573E-09
0.10250693E-09
0.51306331E-10
0.15568003E-10
0.13015927E-11
0.32485861E-11
0.12073376E-10
0.20183069E-10
0.24202343E-10
0.23396909E-10
0.19156461E-10
0.13404042E-10
0.79260687E-11
0.36857206E-11
0.11117509E-11
0.10345545E-12
0.21620004E-12
0.98320191E-12
0.19877342E-11
0.28818907E-11
0.34851618E-11
0.37432310E-11
0.36575573E-11
0.33128595E-11
0.27942100E-11
0.22027178E-11
0.16111129E-11
0.10811292E-11
0.64921668E-12
0.33397964E-12
