atomic number =  103
effective nuclear charge =  103
electron count =   46
net charge =   57
basis set = approximate basis set limit (UGBS)      
exchange correlation functional = PW91PW91            
cutoff radius (picometer) =  300
number of shells =   50
prepared by = Thomas A. Manz      
prepared date = July 2010           
net magnetization =    0
density in atomic units:
0.16549164E+06
0.23772554E+03
0.73580750E+02
0.18572086E+02
0.30166795E+01
0.33787119E+00
0.35088584E-01
0.43919110E-02
0.47504812E-03
0.46428595E-04
0.47312565E-05
0.53731628E-06
0.11152976E-06
0.11246119E-06
0.10548406E-06
0.56635439E-07
0.15484076E-07
0.32091105E-08
0.79546112E-08
0.14997667E-07
0.16682234E-07
0.13176502E-07
0.78218285E-08
0.33834964E-08
0.10137921E-08
0.54295202E-09
0.11374025E-08
0.19542494E-08
0.25127354E-08
0.26153404E-08
0.23162485E-08
0.17826882E-08
0.12012376E-08
0.69390288E-09
0.33483222E-09
0.13978602E-09
0.78150979E-10
0.10796856E-09
0.18674604E-09
0.27495572E-09
0.34691630E-09
0.39066053E-09
0.40063425E-09
0.38096301E-09
0.33890138E-09
0.28380512E-09
0.22328309E-09
0.16474716E-09
0.11325615E-09
0.72102171E-10
