atomic number =   26
effective nuclear charge =   26
electron count =   10
net charge =   16
basis set = approximate basis set limit (UGBS)      
exchange correlation functional = PW91PW91            
cutoff radius (picometer) =  300
number of shells =   50
prepared by = Thomas A. Manz      
prepared date = May 2010            
net magnetization =    0
density in atomic units:
0.20881191E+04
0.71063904E+02
0.20390207E+02
0.43714256E+01
0.84317482E+00
0.13453947E+00
0.21019254E-01
0.37043751E-02
0.61448594E-03
0.10535280E-03
0.17880613E-04
0.27626081E-05
0.45758412E-06
0.68732859E-07
0.10303197E-07
0.17983126E-08
0.38762846E-09
0.16280946E-09
0.14103001E-09
0.13743029E-09
0.11044219E-09
0.69056982E-10
0.32011206E-10
0.93741707E-11
0.18002434E-11
0.43279885E-11
0.10518667E-10
0.15623789E-10
0.17748426E-10
0.16661939E-10
0.13415860E-10
0.93099538E-11
0.55132066E-11
0.26260999E-11
0.90018000E-12
0.24166693E-12
0.33828363E-12
0.87020647E-12
0.15547818E-11
0.21585459E-11
0.25597291E-11
0.27214374E-11
0.26513845E-11
0.24000938E-11
0.20296523E-11
0.16095132E-11
0.11896819E-11
0.81198492E-12
0.50291894E-12
0.27524150E-12
