atomic number =   66
effective nuclear charge =   66
electron count =   30
net charge =   36
basis set = approximate basis set limit (UGBS)      
exchange correlation functional = PW91PW91            
cutoff radius (picometer) =  300
number of shells =   50
prepared by = Thomas A. Manz      
prepared date = July 2010           
net magnetization =    0
density in atomic units:
0.42212840E+05
0.20569621E+03
0.48025593E+02
0.79974751E+01
0.22520123E+01
0.81174010E+00
0.28238687E+00
0.96619032E-01
0.30063709E-01
0.90255113E-02
0.25537477E-02
0.68479870E-03
0.20106536E-03
0.57563688E-04
0.16402399E-04
0.45769639E-05
0.11925969E-05
0.32621287E-06
0.88440189E-07
0.27464306E-07
0.11161421E-07
0.54650235E-08
0.26400671E-08
0.10692236E-08
0.36033310E-09
0.23346236E-09
0.38833728E-09
0.58554195E-09
0.70327366E-09
0.69985867E-09
0.59823702E-09
0.44529666E-09
0.28966685E-09
0.16079761E-09
0.74664448E-10
0.32271821E-10
0.23575711E-10
0.36589148E-10
0.59865939E-10
0.83263244E-10
0.10074028E-09
0.10980489E-09
0.10966530E-09
0.10191789E-09
0.88729218E-10
0.72735762E-10
0.55968372E-10
0.40302071E-10
0.26942795E-10
0.16617711E-10
