atomic number =   59
effective nuclear charge =   59
electron count =   54
net charge =    5
basis set = approximate basis set limit (UGBS)      
exchange correlation functional = PW91PW91            
cutoff radius (picometer) =  300
number of shells =   50
prepared by = Thomas A. Manz      
prepared date = July 2010           
net magnetization =    0
density in atomic units:
0.29419828E+05
0.19420422E+03
0.58709679E+02
0.16557159E+02
0.10513637E+02
0.71216559E+01
0.40706353E+01
0.22133002E+01
0.12081623E+01
0.73354501E+00
0.49966365E+00
0.37280375E+00
0.29567400E+00
0.23494701E+00
0.18584478E+00
0.14450943E+00
0.11044502E+00
0.84411032E-01
0.63446179E-01
0.47253761E-01
0.35002619E-01
0.25780335E-01
0.18967817E-01
0.13910147E-01
0.10153904E-01
0.73862630E-02
0.53711915E-02
0.39323950E-02
0.28596004E-02
0.20739005E-02
0.15099166E-02
0.10975238E-02
0.80089748E-03
0.58374269E-03
0.42581672E-03
0.31242444E-03
0.23003093E-03
0.16922732E-03
0.12399881E-03
0.91239759E-04
0.67369874E-04
0.49470418E-04
0.36426740E-04
0.26860189E-04
0.19742851E-04
0.14538500E-04
0.10672929E-04
0.78233443E-05
0.57250218E-05
0.41963899E-05
