atomic number =   87
effective nuclear charge =   87
electron count =   36
net charge =   51
basis set = approximate basis set limit (UGBS)      
exchange correlation functional = PW91PW91            
cutoff radius (picometer) =  300
number of shells =   50
prepared by = Thomas A. Manz      
prepared date = July 2010           
net magnetization =    0
density in atomic units:
0.10104979E+06
0.23839946E+03
0.35117619E+02
0.13352756E+02
0.38033342E+01
0.73619509E+00
0.12323814E+00
0.21509932E-01
0.34134474E-02
0.55790081E-03
0.90968650E-04
0.13133405E-04
0.18782597E-05
0.25051563E-06
0.72985458E-07
0.31957061E-07
0.75119129E-08
0.26994329E-08
0.81631075E-08
0.13300106E-07
0.13531086E-07
0.99406137E-08
0.54525899E-08
0.21104636E-08
0.56947685E-09
0.49320747E-09
0.11259798E-08
0.17994507E-08
0.21797335E-08
0.21614728E-08
0.18331672E-08
0.13478979E-08
0.86028967E-09
0.46165510E-09
0.19986672E-09
0.75791026E-10
0.56420625E-10
0.10342600E-09
0.18065610E-09
0.25640304E-09
0.31210387E-09
0.34029221E-09
0.33939707E-09
0.31437328E-09
0.27243507E-09
0.22196241E-09
0.16936480E-09
0.12049213E-09
0.79107346E-10
0.47369830E-10
