atomic number =   46
effective nuclear charge =   46
electron count =   18
net charge =   28
basis set = approximate basis set limit (UGBS)      
exchange correlation functional = PW91PW91            
cutoff radius (picometer) =  300
number of shells =   50
prepared by = Thomas A. Manz      
prepared date = July 2010           
net magnetization =    0
density in atomic units:
0.13055453E+05
0.81324661E+02
0.23472027E+02
0.11195327E+02
0.37949286E+01
0.96244878E+00
0.22130352E+00
0.53331979E-01
0.12031722E-01
0.27220363E-02
0.58641593E-03
0.11583449E-03
0.25228075E-04
0.54474772E-05
0.12541811E-05
0.31256920E-06
0.77719470E-07
0.20503848E-07
0.52010534E-08
0.16729943E-08
0.90850016E-09
0.58689736E-09
0.31638422E-09
0.11841880E-09
0.27132085E-10
0.25533603E-10
0.67554469E-10
0.11095732E-09
0.13461993E-09
0.13239798E-09
0.11048185E-09
0.79118941E-10
0.48360080E-10
0.23899650E-10
0.85204803E-11
0.19612248E-11
0.18921746E-11
0.57441924E-11
0.11166560E-10
0.16150532E-10
0.19621717E-10
0.21194515E-10
0.20861668E-10
0.19018280E-10
0.16159161E-10
0.12851966E-10
0.94997482E-11
0.64687687E-11
0.39742606E-11
0.21298813E-11
