atomic number =   87
effective nuclear charge =   87
electron count =   10
net charge =   77
basis set = approximate basis set limit (UGBS)      
exchange correlation functional = PW91PW91            
cutoff radius (picometer) =  300
number of shells =   50
prepared by = Thomas A. Manz      
prepared date = July 2010           
net magnetization =    0
density in atomic units:
0.96635727E+05
0.41366582E+01
0.30131221E-02
0.26297064E-04
0.63707798E-05
0.16524644E-05
0.12213799E-05
0.63373591E-06
0.49894872E-07
0.21919517E-06
0.14561326E-06
0.17797591E-07
0.10597864E-07
0.35185931E-07
0.34038216E-07
0.16005876E-07
0.28194611E-08
0.47880921E-09
0.33299026E-08
0.58633303E-08
0.59351137E-08
0.42041695E-08
0.21285218E-08
0.66166256E-09
0.62531307E-10
0.12675769E-09
0.47812887E-09
0.80695883E-09
0.97334985E-09
0.94540453E-09
0.77722129E-09
0.54634808E-09
0.32497405E-09
0.15267919E-09
0.47320859E-10
0.52338411E-11
0.87055320E-11
0.38956866E-10
0.79174847E-10
0.11526690E-09
0.13975851E-09
0.15035688E-09
0.14732203E-09
0.13361323E-09
0.11291962E-09
0.89232351E-10
0.65416436E-10
0.44035220E-10
0.26581952E-10
0.13788805E-10
