atomic number =   44
effective nuclear charge =   44
electron count =   36
net charge =    8
basis set = approximate basis set limit (UGBS)      
exchange correlation functional = PW91PW91            
cutoff radius (picometer) =  300
number of shells =   50
prepared by = Thomas A. Manz      
prepared date = July 2010           
net magnetization =    0
density in atomic units:
0.11379608E+05
0.12098354E+03
0.47951496E+02
0.22766977E+02
0.85946922E+01
0.31573765E+01
0.16684608E+01
0.11844643E+01
0.87702483E+00
0.63280874E+00
0.43145463E+00
0.28073540E+00
0.18281536E+00
0.11559970E+00
0.72553962E-01
0.44917651E-01
0.27449794E-01
0.17115444E-01
0.10531438E-01
0.64613307E-02
0.39693806E-02
0.24361021E-02
0.15030984E-02
0.92886545E-03
0.57312753E-03
0.35358319E-03
0.21881748E-03
0.13721567E-03
0.85337386E-04
0.52857402E-04
0.32915719E-04
0.20417625E-04
0.12720842E-04
0.79038091E-05
0.49137329E-05
0.30841861E-05
0.19500378E-05
0.12359806E-05
0.78267811E-06
0.50144627E-06
0.32513549E-06
0.21051244E-06
0.13769638E-06
0.90735817E-07
0.59752047E-07
0.39534239E-07
0.26046319E-07
0.17075873E-07
0.11115662E-07
0.71890165E-08
