atomic number =   19
effective nuclear charge =   19
electron count =    2
net charge =   17
basis set = approximate basis set limit (UGBS)      
exchange correlation functional = PW91PW91            
cutoff radius (picometer) =  300
number of shells =   50
prepared by = Thomas A. Manz      
prepared date = July 2010           
net magnetization =    0
density in atomic units:
0.73768054E+03
0.69940934E+01
0.15245654E+00
0.32321324E-02
0.77726523E-04
0.13907260E-05
0.29515800E-07
0.18646344E-08
0.50822790E-10
0.14021326E-09
0.10169598E-09
0.11786840E-10
0.89268749E-11
0.28089839E-10
0.26491746E-10
0.12087787E-10
0.19502349E-11
0.43516495E-12
0.28731646E-11
0.48803969E-11
0.48440700E-11
0.33736551E-11
0.16706646E-11
0.49572260E-12
0.38463963E-13
0.11700440E-12
0.41794373E-12
0.68911901E-12
0.82009757E-12
0.78880793E-12
0.64296469E-12
0.44782168E-12
0.26326746E-12
0.12125637E-12
0.35806044E-13
0.30957841E-14
0.79388138E-14
0.34510284E-13
0.68756111E-13
0.99000669E-13
0.11922122E-12
0.12759383E-12
0.12447855E-12
0.11247206E-12
0.94669417E-13
0.74510385E-13
0.54371878E-13
0.36385913E-13
0.21769050E-13
0.11132067E-13
