atomic number =   73
effective nuclear charge =   73
electron count =   12
net charge =   61
basis set = approximate basis set limit (UGBS)      
exchange correlation functional = PW91PW91            
cutoff radius (picometer) =  300
number of shells =   50
prepared by = Thomas A. Manz      
prepared date = July 2010           
net magnetization =    0
density in atomic units:
0.57691527E+05
0.37113537E+02
0.49260392E+01
0.36396229E+00
0.20326460E-01
0.74023695E-03
0.31634667E-04
0.27157075E-05
0.93361415E-07
0.15687795E-06
0.11266229E-06
0.13864351E-07
0.93565156E-08
0.29221200E-07
0.27832014E-07
0.12949426E-07
0.22606470E-08
0.47406157E-09
0.28742719E-08
0.49431677E-08
0.49576632E-08
0.34926377E-08
0.17597870E-08
0.54544819E-09
0.56638437E-10
0.11825474E-09
0.41516535E-09
0.68967970E-09
0.82646701E-09
0.79985152E-09
0.65608030E-09
0.46041321E-09
0.27369634E-09
0.12868148E-09
0.40303930E-10
0.52662644E-11
0.85631953E-11
0.34339386E-10
0.68372176E-10
0.98825156E-10
0.11942886E-09
0.12825134E-09
0.12558214E-09
0.11383489E-09
0.96151608E-10
0.75962958E-10
0.55713278E-10
0.37545630E-10
0.22705261E-10
0.11836233E-10
