atomic number =   52
effective nuclear charge =   52
electron count =   36
net charge =   16
basis set = approximate basis set limit (UGBS)      
exchange correlation functional = PW91PW91            
cutoff radius (picometer) =  300
number of shells =   50
prepared by = Thomas A. Manz      
prepared date = July 2010           
net magnetization =    0
density in atomic units:
0.19514891E+05
0.14911517E+03
0.59949139E+02
0.18237827E+02
0.59222627E+01
0.31139934E+01
0.20549419E+01
0.13001180E+01
0.74416512E+00
0.40301630E+00
0.20548528E+00
0.10037690E+00
0.50540417E-01
0.24717858E-01
0.12040814E-01
0.57959906E-02
0.27419827E-02
0.13465778E-02
0.65137038E-03
0.31457777E-03
0.15218188E-03
0.73260686E-04
0.35343703E-04
0.16996064E-04
0.81183298E-05
0.38775324E-05
0.18693243E-05
0.93000477E-06
0.46460042E-06
0.23503466E-06
0.12206593E-06
0.63952960E-07
0.33970057E-07
0.17943758E-07
0.93534762E-08
0.48158157E-08
0.24058795E-08
0.11457165E-08
0.51216426E-09
0.22589747E-09
0.11188329E-09
0.76271406E-10
0.72725645E-10
0.77123141E-10
0.79318226E-10
0.76275777E-10
0.68337738E-10
0.57209921E-10
0.44853916E-10
0.33036473E-10
