atomic number =   59
effective nuclear charge =   59
electron count =   10
net charge =   49
basis set = approximate basis set limit (UGBS)      
exchange correlation functional = PW91PW91            
cutoff radius (picometer) =  300
number of shells =   50
prepared by = Thomas A. Manz      
prepared date = July 2010           
net magnetization =    0
density in atomic units:
0.28450393E+05
0.37747486E+02
0.44528833E+00
0.36162417E-02
0.35541929E-04
0.60814597E-06
0.26820976E-06
0.13952706E-06
0.11322678E-07
0.49706866E-07
0.32712617E-07
0.39539607E-08
0.24829661E-08
0.80610256E-08
0.77523108E-08
0.36332888E-08
0.63963551E-09
0.11727982E-09
0.77153511E-09
0.13479322E-08
0.13609348E-08
0.96303976E-09
0.48750814E-09
0.15201121E-09
0.15257066E-10
0.30230950E-10
0.11078337E-09
0.18605183E-09
0.22409540E-09
0.21752936E-09
0.17881907E-09
0.12574097E-09
0.74889851E-10
0.35290885E-10
0.11064290E-10
0.13687271E-11
0.21414138E-11
0.90725630E-11
0.18298477E-10
0.26580476E-10
0.32206994E-10
0.34649259E-10
0.33961847E-10
0.30815545E-10
0.26046136E-10
0.20594373E-10
0.15111816E-10
0.10189270E-10
0.61643286E-11
0.32131860E-11
