atomic number =   53
effective nuclear charge =   53
electron count =   46
net charge =    7
basis set = approximate basis set limit (UGBS)      
exchange correlation functional = PW91PW91            
cutoff radius (picometer) =  300
number of shells =   50
prepared by = Thomas A. Manz      
prepared date = July 2010           
net magnetization =    0
density in atomic units:
0.20765613E+05
0.16167441E+03
0.61498619E+02
0.17868658E+02
0.74161429E+01
0.53194451E+01
0.39381928E+01
0.26523149E+01
0.16277649E+01
0.95781493E+00
0.54016107E+00
0.29782096E+00
0.17048985E+00
0.96392669E-01
0.54904498E-01
0.31195544E-01
0.17639467E-01
0.10315128E-01
0.59942007E-02
0.34957866E-02
0.20503078E-02
0.12036612E-02
0.71112777E-03
0.42094421E-03
0.24899558E-03
0.14760096E-03
0.88101311E-04
0.53578173E-04
0.32453307E-04
0.19657249E-04
0.12006456E-04
0.73116048E-05
0.44671715E-05
0.27128156E-05
0.16392095E-05
0.99383533E-06
0.60232429E-06
0.36282151E-06
0.21624840E-06
0.12945419E-06
0.77946780E-07
0.46562068E-07
0.28009744E-07
0.16967858E-07
0.10280030E-07
0.62835488E-08
0.38388355E-08
0.23536528E-08
0.14446194E-08
0.89122271E-09
