atomic number =   79
effective nuclear charge =   79
electron count =   36
net charge =   43
basis set = approximate basis set limit (UGBS)      
exchange correlation functional = PW91PW91            
cutoff radius (picometer) =  300
number of shells =   50
prepared by = Thomas A. Manz      
prepared date = July 2010           
net magnetization =    0
density in atomic units:
0.74950688E+05
0.24198814E+03
0.36019806E+02
0.13771105E+02
0.55364523E+01
0.15544684E+01
0.37148729E+00
0.90035453E-01
0.20214211E-01
0.45299372E-02
0.96013368E-03
0.18407653E-03
0.38457594E-04
0.79185929E-05
0.17671966E-05
0.44164327E-06
0.11326367E-06
0.33468634E-07
0.13787214E-07
0.97935615E-08
0.77375351E-08
0.50678466E-08
0.24945555E-08
0.80147483E-09
0.16941920E-09
0.30697239E-09
0.75267059E-09
0.11414703E-08
0.13156827E-08
0.12478417E-08
0.10115012E-08
0.70486528E-09
0.41795489E-09
0.19818290E-09
0.66210051E-10
0.15620826E-10
0.22912332E-10
0.63666065E-10
0.11621401E-09
0.16255260E-09
0.19328951E-09
0.20572581E-09
0.20022692E-09
0.18092597E-09
0.15255434E-09
0.12048323E-09
0.88469905E-10
0.59792254E-10
0.36426393E-10
0.19334381E-10
