atomic number =   59
effective nuclear charge =   59
electron count =   46
net charge =   13
basis set = approximate basis set limit (UGBS)      
exchange correlation functional = PW91PW91            
cutoff radius (picometer) =  300
number of shells =   50
prepared by = Thomas A. Manz      
prepared date = July 2010           
net magnetization =    0
density in atomic units:
0.29394410E+05
0.19301111E+03
0.58561108E+02
0.16163553E+02
0.10012314E+02
0.69298768E+01
0.40534010E+01
0.21729114E+01
0.10718147E+01
0.51403517E+00
0.23686093E+00
0.10659714E+00
0.50780773E-01
0.23870762E-01
0.11292946E-01
0.53032814E-02
0.24495756E-02
0.11787898E-02
0.56131085E-03
0.26881299E-03
0.12994962E-03
0.62869665E-04
0.30542811E-04
0.14762242E-04
0.70521214E-05
0.33456665E-05
0.15923021E-05
0.77998618E-06
0.38459169E-06
0.19392881E-06
0.10206828E-06
0.55456191E-07
0.31265337E-07
0.17978326E-07
0.10445083E-07
0.61085061E-08
0.35303191E-08
0.19790063E-08
0.10547533E-08
0.54034499E-09
0.27112046E-09
0.14210216E-09
0.94962677E-10
0.88197845E-10
0.97398666E-10
0.10889157E-09
0.11615289E-09
0.11667994E-09
0.11065732E-09
0.99695356E-10
