atomic number =   79
effective nuclear charge =   79
electron count =   48
net charge =   31
basis set = approximate basis set limit (UGBS)      
exchange correlation functional = PW91PW91            
cutoff radius (picometer) =  300
number of shells =   50
prepared by = Thomas A. Manz      
prepared date = July 2010           
net magnetization =    0
density in atomic units:
0.75119312E+05
0.25023997E+03
0.48985104E+02
0.27136143E+02
0.12267858E+02
0.42025046E+01
0.15018557E+01
0.66590625E+00
0.33256200E+00
0.17963170E+00
0.96452616E-01
0.50472058E-01
0.27145879E-01
0.14192068E-01
0.73838029E-02
0.37890736E-02
0.19077370E-02
0.98839786E-03
0.50199335E-03
0.25335263E-03
0.12775545E-03
0.64164473E-04
0.32389078E-04
0.16367074E-04
0.82510915E-05
0.41654903E-05
0.21165531E-05
0.10998070E-05
0.56750849E-06
0.29181743E-06
0.15132947E-06
0.77846877E-07
0.40063544E-07
0.20346596E-07
0.10194961E-07
0.51082898E-08
0.25657967E-08
0.13105529E-08
0.70865580E-09
0.43903126E-09
0.32030170E-09
0.26337288E-09
0.22977223E-09
0.20153333E-09
0.17250065E-09
0.14263343E-09
0.11300259E-09
0.85659181E-10
0.62153296E-10
0.43575681E-10
