atomic number =   70
effective nuclear charge =   70
electron count =    4
net charge =   66
basis set = approximate basis set limit (UGBS)      
exchange correlation functional = PW91PW91            
cutoff radius (picometer) =  300
number of shells =   50
prepared by = Thomas A. Manz      
prepared date = July 2010           
net magnetization =    0
density in atomic units:
0.48910867E+05
0.58024073E+01
0.20888342E-01
0.32416861E-04
0.27102294E-05
0.59702739E-06
0.45803293E-06
0.23196293E-06
0.18599854E-07
0.82687393E-07
0.54137558E-07
0.63888499E-08
0.40533608E-08
0.13326879E-07
0.12793045E-07
0.59630443E-08
0.10221979E-08
0.17640617E-09
0.12685586E-08
0.22221747E-08
0.22402165E-08
0.15804239E-08
0.79543933E-09
0.24377211E-09
0.20865268E-10
0.47856458E-10
0.18198985E-09
0.30643163E-09
0.36880987E-09
0.35747091E-09
0.29323724E-09
0.20559311E-09
0.12186566E-09
0.56861439E-10
0.17282344E-10
0.16424498E-11
0.31897228E-11
0.14799658E-10
0.30099600E-10
0.43768614E-10
0.53023270E-10
0.56991491E-10
0.55782139E-10
0.50539215E-10
0.42657700E-10
0.33652997E-10
0.24634369E-10
0.16542627E-10
0.99466355E-11
0.51262315E-11
