atomic number =   97
effective nuclear charge =   97
electron count =   60
net charge =   37
basis set = approximate basis set limit (UGBS)      
exchange correlation functional = PW91PW91            
cutoff radius (picometer) =  300
number of shells =   50
prepared by = Thomas A. Manz      
prepared date = July 2010           
net magnetization =    0
density in atomic units:
0.13971678E+06
0.31579517E+03
0.11241000E+03
0.37289337E+02
0.86927595E+01
0.15488471E+01
0.27062503E+00
0.54466445E-01
0.10324826E-01
0.20277554E-02
0.42016630E-03
0.88166315E-04
0.20464533E-04
0.43661271E-05
0.88874896E-06
0.17739882E-06
0.30030510E-07
0.67706334E-08
0.84708933E-08
0.12459775E-07
0.12659500E-07
0.96913908E-08
0.59352430E-08
0.30605247E-08
0.16067262E-08
0.13217406E-08
0.16216291E-08
0.19902107E-08
0.21600177E-08
0.20500470E-08
0.17256246E-08
0.12991315E-08
0.88566665E-09
0.54998472E-09
0.32569078E-09
0.21115742E-09
0.17930858E-09
0.19964683E-09
0.24405472E-09
0.28861005E-09
0.31913561E-09
0.32983272E-09
0.31958289E-09
0.29242400E-09
0.25349411E-09
0.20922884E-09
0.16427282E-09
0.12294465E-09
0.87990372E-10
0.60920179E-10
