atomic number =   57
effective nuclear charge =   57
electron count =   54
net charge =    3
basis set = approximate basis set limit (UGBS)      
exchange correlation functional = PW91PW91            
cutoff radius (picometer) =  300
number of shells =   50
prepared by = Thomas A. Manz      
prepared date = July 2010           
net magnetization =    0
density in atomic units:
0.26309637E+05
0.18410614E+03
0.60516083E+02
0.16649809E+02
0.96381617E+01
0.68955817E+01
0.42407775E+01
0.24192677E+01
0.13428410E+01
0.80254924E+00
0.53025508E+00
0.38677946E+00
0.30471006E+00
0.24300098E+00
0.19391827E+00
0.15245503E+00
0.11785627E+00
0.91010980E-01
0.69072038E-01
0.51889960E-01
0.38727559E-01
0.28710742E-01
0.21240795E-01
0.15648391E-01
0.11467072E-01
0.83666332E-02
0.60991105E-02
0.44737328E-02
0.32580255E-02
0.23655861E-02
0.17236681E-02
0.12535444E-02
0.91504515E-03
0.66700787E-03
0.48652088E-03
0.35686325E-03
0.26263323E-03
0.19310060E-03
0.14138185E-03
0.10392880E-03
0.76654585E-04
0.56215566E-04
0.41330477E-04
0.30425268E-04
0.22325779E-04
0.16406646E-04
0.12016971E-04
0.87873577E-05
0.64152205E-05
0.46882465E-05
