atomic number =   78
effective nuclear charge =   78
electron count =   46
net charge =   32
basis set = approximate basis set limit (UGBS)      
exchange correlation functional = PW91PW91            
cutoff radius (picometer) =  300
number of shells =   50
prepared by = Thomas A. Manz      
prepared date = July 2010           
net magnetization =    0
density in atomic units:
0.72066945E+05
0.24911809E+03
0.47676899E+02
0.26400181E+02
0.12511169E+02
0.42188392E+01
0.12581936E+01
0.38369960E+00
0.11103275E+00
0.32554697E-01
0.92401886E-02
0.24902583E-02
0.73535764E-03
0.21685888E-03
0.66734508E-04
0.21148371E-04
0.65232289E-05
0.20886282E-05
0.62278747E-06
0.17565586E-06
0.48107506E-07
0.13102035E-07
0.35690495E-08
0.83257379E-09
0.18376256E-09
0.33141756E-09
0.73329526E-09
0.10854566E-08
0.12628254E-08
0.12352241E-08
0.10549402E-08
0.79938739E-09
0.54400873E-09
0.33272926E-09
0.18896296E-09
0.11379994E-09
0.91568648E-10
0.10369924E-09
0.13271377E-09
0.16319436E-09
0.18568819E-09
0.19608973E-09
0.19317896E-09
0.17905792E-09
0.15681562E-09
0.13045293E-09
0.10298656E-09
0.77235732E-10
0.55073234E-10
0.37664229E-10
