atomic number =   28
effective nuclear charge =   28
electron count =    4
net charge =   24
basis set = approximate basis set limit (UGBS)      
exchange correlation functional = PW91PW91            
cutoff radius (picometer) =  300
number of shells =   50
prepared by = Thomas A. Manz      
prepared date = July 2010           
net magnetization =    0
density in atomic units:
0.25067915E+04
0.19543562E+02
0.57454972E+01
0.10621769E+01
0.16756137E+00
0.20989252E-01
0.25113348E-02
0.34402363E-03
0.44460434E-04
0.61569090E-05
0.86473614E-06
0.10017766E-06
0.90126830E-08
0.59133298E-09
0.63384631E-09
0.35490874E-09
0.50729292E-10
0.32786676E-10
0.14996486E-09
0.23021363E-09
0.21777663E-09
0.14648746E-09
0.69864461E-10
0.19391060E-10
0.13371813E-11
0.64216622E-11
0.20422039E-10
0.32358390E-10
0.37678954E-10
0.35695873E-10
0.28740191E-10
0.19766836E-10
0.11444574E-10
0.51463456E-11
0.14419502E-11
0.11060781E-12
0.44268406E-12
0.17157493E-11
0.32959683E-11
0.46627758E-11
0.55547650E-11
0.59012170E-11
0.57206293E-11
0.51437327E-11
0.43089872E-11
0.33749635E-11
0.24499138E-11
0.16286397E-11
0.96575992E-12
0.48676628E-12
