atomic number =   47
effective nuclear charge =   47
electron count =    4
net charge =   43
basis set = approximate basis set limit (UGBS)      
exchange correlation functional = PW91PW91            
cutoff radius (picometer) =  300
number of shells =   50
prepared by = Thomas A. Manz      
prepared date = July 2010           
net magnetization =    0
density in atomic units:
0.13365920E+05
0.21378302E+02
0.88470674E+00
0.23240278E-01
0.63834316E-03
0.12860273E-04
0.11823737E-06
0.43461437E-07
0.71225492E-08
0.25488900E-07
0.14954946E-07
0.15431745E-08
0.14116318E-08
0.40880352E-08
0.37522652E-08
0.16859838E-08
0.26796737E-09
0.63607723E-10
0.40489459E-09
0.68195455E-09
0.67445755E-09
0.46899906E-09
0.23217389E-09
0.69039392E-10
0.54564621E-11
0.16076340E-10
0.57522234E-10
0.94941062E-10
0.11305647E-09
0.10880452E-09
0.88741840E-10
0.61866706E-10
0.36421366E-10
0.16816269E-10
0.49964030E-11
0.44336694E-12
0.10694157E-11
0.46989257E-11
0.93964185E-11
0.13553570E-10
0.16341472E-10
0.17502324E-10
0.17088943E-10
0.15447203E-10
0.13010909E-10
0.10246260E-10
0.74818094E-11
0.50115181E-11
0.30024984E-11
0.15385065E-11
