atomic number =   73
effective nuclear charge =   73
electron count =   48
net charge =   25
basis set = approximate basis set limit (UGBS)      
exchange correlation functional = PW91PW91            
cutoff radius (picometer) =  300
number of shells =   50
prepared by = Thomas A. Manz      
prepared date = July 2010           
net magnetization =    0
density in atomic units:
0.58466527E+05
0.24333208E+03
0.46703835E+02
0.23553852E+02
0.13323953E+02
0.55504661E+01
0.21523325E+01
0.93867064E+00
0.45580339E+00
0.25175205E+00
0.14648531E+00
0.86557351E-01
0.53114384E-01
0.31993665E-01
0.19177090E-01
0.11304402E-01
0.65360172E-02
0.38468277E-02
0.22216246E-02
0.12751517E-02
0.73170004E-03
0.41919335E-03
0.24162180E-03
0.13955313E-03
0.80475642E-04
0.46391611E-04
0.26814660E-04
0.15714215E-04
0.91047314E-05
0.52335495E-05
0.30135311E-05
0.17171608E-05
0.97599957E-06
0.54755515E-06
0.30349551E-06
0.16778142E-06
0.91966790E-07
0.49598629E-07
0.26120841E-07
0.13705839E-07
0.71569239E-08
0.36781647E-08
0.19108808E-08
0.10224247E-08
0.56712873E-09
0.33478725E-09
0.20977388E-09
0.13932330E-09
0.97908882E-10
0.73887473E-10
