atomic number =   87
effective nuclear charge =   87
electron count =   68
net charge =   19
basis set = approximate basis set limit (UGBS)      
exchange correlation functional = PW91PW91            
cutoff radius (picometer) =  300
number of shells =   50
prepared by = Thomas A. Manz      
prepared date = July 2010           
net magnetization =    0
density in atomic units:
0.10134010E+06
0.29398621E+03
0.95106293E+02
0.44627041E+02
0.16145853E+02
0.61193223E+01
0.30557661E+01
0.17158316E+01
0.92027330E+00
0.47553882E+00
0.23160878E+00
0.10749808E+00
0.51346332E-01
0.23670454E-01
0.10818487E-01
0.48726755E-02
0.21511896E-02
0.99200394E-03
0.45200021E-03
0.20663941E-03
0.94992269E-04
0.43452004E-04
0.19825380E-04
0.89152563E-05
0.39071269E-05
0.16670056E-05
0.69388483E-06
0.28825377E-06
0.11509837E-06
0.44769116E-07
0.17519143E-07
0.68897954E-08
0.28043068E-08
0.11711203E-08
0.52269494E-09
0.31297681E-09
0.31723027E-09
0.43330065E-09
0.59686989E-09
0.75415224E-09
0.87306012E-09
0.93825758E-09
0.94174357E-09
0.89190122E-09
0.79987927E-09
0.68201661E-09
0.55229926E-09
0.42450163E-09
0.30875383E-09
0.21243890E-09
