atomic number =   73
effective nuclear charge =   73
electron count =    2
net charge =   71
basis set = approximate basis set limit (UGBS)      
exchange correlation functional = PW91PW91            
cutoff radius (picometer) =  300
number of shells =   50
prepared by = Thomas A. Manz      
prepared date = July 2010           
net magnetization =    0
density in atomic units:
0.49014871E+05
0.15245135E-03
0.26521991E-04
0.86240798E-05
0.19379788E-05
0.52174147E-06
0.37030910E-06
0.19612203E-06
0.14690848E-07
0.66403310E-07
0.44481336E-07
0.54265725E-08
0.31292482E-08
0.10631829E-07
0.10323269E-07
0.48568114E-08
0.84891189E-09
0.13507430E-09
0.10005385E-08
0.17710848E-08
0.17946176E-08
0.12709004E-08
0.64241634E-09
0.19841687E-09
0.17378326E-10
0.37210131E-10
0.14387322E-09
0.24355798E-09
0.29397854E-09
0.28549688E-09
0.23456193E-09
0.16469665E-09
0.97799678E-10
0.45758043E-10
0.13990464E-10
0.13555168E-11
0.24807669E-11
0.11683428E-10
0.23874061E-10
0.34790854E-10
0.42204976E-10
0.45411352E-10
0.44470778E-10
0.40316691E-10
0.34042491E-10
0.26876973E-10
0.19681992E-10
0.13228562E-10
0.79619011E-11
0.41091254E-11
