atomic number =   21
effective nuclear charge =   21
electron count =   10
net charge =   11
basis set = approximate basis set limit (UGBS)      
exchange correlation functional = PW91PW91            
cutoff radius (picometer) =  300
number of shells =   50
prepared by = Thomas A. Manz      
prepared date = July 2010           
net magnetization =    0
density in atomic units:
0.10974779E+04
0.49809872E+02
0.21269520E+02
0.73144670E+01
0.22290747E+01
0.57791269E+00
0.14657302E+00
0.40202167E-01
0.10555605E-01
0.27975098E-02
0.71375089E-03
0.17237730E-03
0.46174053E-04
0.12285900E-04
0.33605575E-05
0.93089818E-06
0.24537260E-06
0.67195373E-07
0.17023870E-07
0.40713557E-08
0.93934316E-09
0.21312035E-09
0.50119221E-10
0.12014866E-10
0.29150354E-11
0.17930903E-11
0.29943045E-11
0.43920709E-11
0.51613956E-11
0.50662061E-11
0.42933257E-11
0.31765868E-11
0.20547479E-11
0.11296526E-11
0.51084224E-12
0.20422691E-12
0.13885193E-12
0.23012319E-12
0.39704297E-12
0.56771135E-12
0.69789563E-12
0.76891792E-12
0.77533081E-12
0.72624421E-12
0.63713531E-12
0.52633901E-12
0.40838890E-12
0.29677579E-12
0.20047225E-12
0.12508804E-12
