atomic number =   74
effective nuclear charge =   74
electron count =   36
net charge =   38
basis set = approximate basis set limit (UGBS)      
exchange correlation functional = PW91PW91            
cutoff radius (picometer) =  300
number of shells =   50
prepared by = Thomas A. Manz      
prepared date = July 2010           
net magnetization =    0
density in atomic units:
0.60940137E+05
0.23647009E+03
0.39294304E+02
0.13145515E+02
0.62962871E+01
0.22027392E+01
0.64952189E+00
0.19037357E+00
0.51779132E-01
0.13908301E-01
0.35293356E-02
0.83329156E-03
0.21619025E-03
0.55460347E-04
0.14668844E-04
0.39577772E-05
0.10217464E-05
0.27820951E-06
0.75018065E-07
0.24075904E-07
0.10676621E-07
0.54817977E-08
0.24899245E-08
0.79037238E-09
0.16660068E-09
0.26706701E-09
0.65612654E-09
0.10008153E-08
0.11578799E-08
0.11006778E-08
0.89412255E-09
0.62473471E-09
0.37205633E-09
0.17830473E-09
0.61751784E-10
0.16899043E-10
0.23039116E-10
0.58652867E-10
0.10464234E-09
0.14514380E-09
0.17193380E-09
0.18269083E-09
0.17756439E-09
0.16036511E-09
0.13523448E-09
0.10687485E-09
0.78592625E-10
0.53291486E-10
0.32681583E-10
0.17602949E-10
