atomic number =   57
effective nuclear charge =   57
electron count =    2
net charge =   55
basis set = approximate basis set limit (UGBS)      
exchange correlation functional = PW91PW91            
cutoff radius (picometer) =  300
number of shells =   50
prepared by = Thomas A. Manz      
prepared date = July 2010           
net magnetization =    0
density in atomic units:
0.22238143E+05
0.22883492E-02
0.94493926E-05
0.33910803E-05
0.79442987E-06
0.20483158E-06
0.15292565E-06
0.78996926E-07
0.60945551E-08
0.27418956E-07
0.18161987E-07
0.21801037E-08
0.13135343E-08
0.43983723E-08
0.42484949E-08
0.19905397E-08
0.34493969E-09
0.56767875E-10
0.41568110E-09
0.73253648E-09
0.74066847E-09
0.52369431E-09
0.26422334E-09
0.81347991E-10
0.70545705E-11
0.15539856E-10
0.59685416E-10
0.10082801E-09
0.12155686E-09
0.11795558E-09
0.96851159E-10
0.67966952E-10
0.40327047E-10
0.18847880E-10
0.57488927E-11
0.55261384E-12
0.10357642E-11
0.48495175E-11
0.98897427E-11
0.14401183E-10
0.17460066E-10
0.18775356E-10
0.18386294E-10
0.16664290E-10
0.14067970E-10
0.11103692E-10
0.81303410E-11
0.54629435E-11
0.32866257E-11
0.16952188E-11
