atomic number =  103
effective nuclear charge =  103
electron count =   36
net charge =   67
basis set = approximate basis set limit (UGBS)      
exchange correlation functional = PW91PW91            
cutoff radius (picometer) =  300
number of shells =   50
prepared by = Thomas A. Manz      
prepared date = July 2010           
net magnetization =    0
density in atomic units:
0.16541662E+06
0.20622321E+03
0.36718357E+02
0.78327575E+01
0.10510192E+01
0.90774201E-01
0.71229441E-02
0.68810943E-03
0.52733794E-04
0.31505251E-05
0.39514728E-06
0.52275475E-07
0.28008348E-07
0.95543335E-07
0.10160192E-06
0.55691519E-07
0.15289153E-07
0.31845417E-08
0.79516767E-08
0.14976656E-07
0.16643533E-07
0.13131907E-07
0.77822211E-08
0.33543832E-08
0.99644704E-09
0.53494553E-09
0.11350331E-08
0.19540289E-08
0.25123601E-08
0.26136515E-08
0.23131084E-08
0.17782215E-08
0.11963361E-08
0.68921002E-09
0.33085937E-09
0.13674960E-09
0.76066438E-10
0.10671979E-09
0.18610616E-09
0.27478933E-09
0.34688769E-09
0.39064491E-09
0.40053355E-09
0.38072795E-09
0.33853156E-09
0.28332905E-09
0.22269289E-09
0.16411450E-09
0.11262422E-09
0.71500306E-10
