atomic number =   21
effective nuclear charge =   21
electron count =    2
net charge =   19
basis set = approximate basis set limit (UGBS)      
exchange correlation functional = PW91PW91            
cutoff radius (picometer) =  300
number of shells =   50
prepared by = Thomas A. Manz      
prepared date = July 2010           
net magnetization =    0
density in atomic units:
0.97290540E+03
0.51728182E+01
0.74930809E-01
0.10461581E-02
0.16251666E-04
0.18262591E-06
0.64570753E-08
0.83171003E-09
0.72754296E-10
0.28677147E-09
0.16632261E-09
0.15750509E-10
0.18116158E-10
0.49862676E-10
0.44794668E-10
0.19714178E-10
0.29706177E-11
0.84141748E-12
0.50966011E-11
0.84110826E-11
0.82317061E-11
0.56756891E-11
0.27819437E-11
0.81116304E-12
0.60135016E-13
0.20821604E-12
0.72263967E-12
0.11797352E-11
0.13965758E-11
0.13384520E-11
0.10881170E-11
0.75601987E-12
0.44324760E-12
0.20337519E-12
0.59576747E-13
0.50266179E-14
0.13835746E-13
0.59175328E-13
0.11726862E-12
0.16840218E-12
0.20248800E-12
0.21649043E-12
0.21101145E-12
0.19054171E-12
0.16027931E-12
0.12606593E-12
0.91946504E-13
0.61490486E-13
0.36758868E-13
0.18773750E-13
