atomic number =   79
effective nuclear charge =   79
electron count =    2
net charge =   77
basis set = approximate basis set limit (UGBS)      
exchange correlation functional = PW91PW91            
cutoff radius (picometer) =  300
number of shells =   50
prepared by = Thomas A. Manz      
prepared date = July 2010           
net magnetization =    0
density in atomic units:
0.62609363E+05
0.30402478E-03
0.35884870E-04
0.11609259E-04
0.25834515E-05
0.70256471E-06
0.49262206E-06
0.26248131E-06
0.19521291E-07
0.88319290E-07
0.59326439E-07
0.72666815E-08
0.41450470E-08
0.14133992E-07
0.13741628E-07
0.64716739E-08
0.11335413E-08
0.17888248E-09
0.13287851E-08
0.23546931E-08
0.23871103E-08
0.16912053E-08
0.85524254E-09
0.26436617E-09
0.23209041E-10
0.49352491E-10
0.19113494E-09
0.32374145E-09
0.39088938E-09
0.37965323E-09
0.31197564E-09
0.21908136E-09
0.13011309E-09
0.60896371E-10
0.18631045E-10
0.18082431E-11
0.32914095E-11
0.15521704E-10
0.31728432E-10
0.46248286E-10
0.56109718E-10
0.60366358E-10
0.59129590E-10
0.53616386E-10
0.45275287E-10
0.35743422E-10
0.26178927E-10
0.17594478E-10
0.10591932E-10
0.54676754E-11
