atomic number =   79
effective nuclear charge =   79
electron count =   30
net charge =   49
basis set = approximate basis set limit (UGBS)      
exchange correlation functional = PW91PW91            
cutoff radius (picometer) =  300
number of shells =   50
prepared by = Thomas A. Manz      
prepared date = July 2010           
net magnetization =    0
density in atomic units:
0.74932547E+05
0.23401797E+03
0.28538427E+02
0.47463689E+01
0.13861604E+01
0.33082581E+00
0.67697346E-01
0.14316075E-01
0.28107450E-02
0.54843636E-03
0.99144956E-04
0.15298088E-04
0.24074384E-05
0.34874319E-06
0.68061524E-07
0.20572138E-07
0.58563630E-08
0.39601962E-08
0.66813985E-08
0.85082643E-08
0.76328099E-08
0.50470881E-08
0.24132276E-08
0.70533784E-09
0.99254910E-10
0.27172017E-09
0.74182027E-09
0.11404099E-08
0.13141902E-08
0.12410950E-08
0.99950259E-09
0.68992956E-09
0.40296352E-09
0.18534604E-09
0.56660981E-10
0.94466926E-11
0.19546816E-10
0.62263167E-10
0.11590855E-09
0.16253662E-09
0.19309403E-09
0.20504115E-09
0.19900231E-09
0.17922422E-09
0.15056376E-09
0.11837262E-09
0.86402933E-10
0.57908268E-10
0.34819134E-10
0.18041327E-10
