atomic number =   38
effective nuclear charge =   38
electron count =   18
net charge =   20
basis set = approximate basis set limit (UGBS)      
exchange correlation functional = PW91PW91            
cutoff radius (picometer) =  300
number of shells =   50
prepared by = Thomas A. Manz      
prepared date = May 2010            
net magnetization =    0
density in atomic units:
0.70700547E+04
0.90146667E+02
0.16279856E+02
0.96723003E+01
0.53427835E+01
0.22524061E+01
0.84905457E+00
0.32046190E+00
0.11378460E+00
0.39979819E-01
0.13489107E-01
0.43879515E-02
0.15466949E-02
0.53493597E-03
0.18532309E-03
0.63248794E-04
0.20636973E-04
0.70466408E-05
0.23425284E-05
0.78630052E-06
0.27281163E-06
0.97957141E-07
0.36785508E-07
0.14228181E-07
0.55593459E-08
0.21854707E-08
0.87097862E-09
0.36811082E-09
0.16586775E-09
0.83877336E-10
0.47908743E-10
0.28642252E-10
0.16834888E-10
0.92268736E-11
0.48424368E-11
0.30174758E-11
0.29543969E-11
0.39304350E-11
0.53130755E-11
0.65657644E-11
0.73922092E-11
0.76794118E-11
0.74306386E-11
0.67519657E-11
0.57720235E-11
0.46664959E-11
0.35510323E-11
0.25315082E-11
0.16795473E-11
0.10340084E-11
