atomic number =   50
effective nuclear charge =   50
electron count =    4
net charge =   46
basis set = approximate basis set limit (UGBS)      
exchange correlation functional = PW91PW91            
cutoff radius (picometer) =  300
number of shells =   50
prepared by = Thomas A. Manz      
prepared date = July 2010           
net magnetization =    0
density in atomic units:
0.16367275E+05
0.19228994E+02
0.58018506E+00
0.11013933E-01
0.23160076E-03
0.41318799E-05
0.12776036E-06
0.77282870E-07
0.82873699E-08
0.34215677E-07
0.21040995E-07
0.22735118E-08
0.18338332E-08
0.55613820E-08
0.51853006E-08
0.23584152E-08
0.38381004E-09
0.82138865E-10
0.54557497E-09
0.93046737E-09
0.92577740E-09
0.64660555E-09
0.32170869E-09
0.96513873E-10
0.77846002E-11
0.21381083E-10
0.77893574E-10
0.12932103E-09
0.15447625E-09
0.14896762E-09
0.12169954E-09
0.84982986E-10
0.50126549E-10
0.23209525E-10
0.69394924E-11
0.62662852E-12
0.14258437E-11
0.63611980E-11
0.12780324E-10
0.18475480E-10
0.22305092E-10
0.23906767E-10
0.23361998E-10
0.21134431E-10
0.17808756E-10
0.14031086E-10
0.10254251E-10
0.68724913E-11
0.41209640E-11
0.21148268E-11
