atomic number =   51
effective nuclear charge =   51
electron count =   46
net charge =    5
basis set = approximate basis set limit (UGBS)      
exchange correlation functional = PW91PW91            
cutoff radius (picometer) =  300
number of shells =   50
prepared by = Thomas A. Manz      
prepared date = July 2010           
net magnetization =    0
density in atomic units:
0.18334506E+05
0.15154546E+03
0.60591965E+02
0.19158443E+02
0.70271311E+01
0.45715737E+01
0.35563216E+01
0.25822451E+01
0.17129632E+01
0.10861433E+01
0.66005743E+00
0.39243436E+00
0.24083325E+00
0.14625916E+00
0.89589752E-01
0.54862224E-01
0.33555761E-01
0.21159589E-01
0.13288557E-01
0.83825560E-02
0.53210468E-02
0.33869646E-02
0.21721034E-02
0.13978789E-02
0.90048742E-03
0.58144104E-03
0.37755529E-03
0.24871307E-03
0.16299018E-03
0.10663421E-03
0.70164795E-04
0.46018678E-04
0.30286777E-04
0.19858082E-04
0.13002572E-04
0.85685251E-05
0.56679351E-05
0.37465943E-05
0.24664055E-05
0.16362749E-05
0.10940987E-05
0.72875446E-06
0.48884158E-06
0.32970937E-06
0.22214005E-06
0.15032896E-06
0.10150480E-06
0.68455975E-07
0.46080331E-07
0.31044564E-07
