atomic number =   25
effective nuclear charge =   25
electron count =   10
net charge =   15
basis set = approximate basis set limit (UGBS)      
exchange correlation functional = PW91PW91            
cutoff radius (picometer) =  300
number of shells =   50
prepared by = Thomas A. Manz      
prepared date = July 2010           
net magnetization =    0
density in atomic units:
0.18506100E+04
0.67238548E+02
0.21046766E+02
0.49617796E+01
0.10481790E+01
0.18426493E+00
0.31711787E-01
0.61004981E-02
0.11091223E-02
0.20671722E-03
0.37569345E-04
0.62316317E-05
0.11362137E-05
0.20190249E-06
0.39311640E-07
0.91376959E-08
0.23748687E-08
0.70742850E-09
0.21435341E-09
0.85112882E-10
0.54519469E-10
0.40843700E-10
0.27297272E-10
0.15276329E-10
0.78230278E-11
0.53973167E-11
0.62534557E-11
0.81143686E-11
0.94560679E-11
0.95470090E-11
0.84424343E-11
0.65957396E-11
0.45818939E-11
0.28005237E-11
0.15093786E-11
0.77799399E-12
0.51333189E-12
0.57721471E-12
0.82429631E-12
0.11162776E-11
0.13599760E-11
0.15078697E-11
0.15378855E-11
0.14620669E-11
0.13046735E-11
0.10986179E-11
0.87168667E-12
0.65091801E-12
0.45526484E-12
0.29764342E-12
