atomic number =   79
effective nuclear charge =   79
electron count =   18
net charge =   61
basis set = approximate basis set limit (UGBS)      
exchange correlation functional = PW91PW91            
cutoff radius (picometer) =  300
number of shells =   50
prepared by = Thomas A. Manz      
prepared date = July 2010           
net magnetization =    0
density in atomic units:
0.74062742E+05
0.11270863E+03
0.13673844E+02
0.74186230E+00
0.33082552E-01
0.10383546E-02
0.26603424E-04
0.14867837E-05
0.85080934E-07
0.18668658E-06
0.12451470E-06
0.15952830E-07
0.89790664E-08
0.29710616E-07
0.29030534E-07
0.13879343E-07
0.26069005E-08
0.48339732E-09
0.28296157E-08
0.49833266E-08
0.50782645E-08
0.36327628E-08
0.18713222E-08
0.60967326E-09
0.79881782E-10
0.11796526E-09
0.40822837E-09
0.68666767E-09
0.83131740E-09
0.81174589E-09
0.67181016E-09
0.47655202E-09
0.28759725E-09
0.13897157E-09
0.46753417E-10
0.84732065E-11
0.94704531E-11
0.33923881E-10
0.67501962E-10
0.98116286E-10
0.11927562E-09
0.12879621E-09
0.12667759E-09
0.11540687E-09
0.97995806E-10
0.77899714E-10
0.57574542E-10
0.39193877E-10
0.24076080E-10
0.12901465E-10
