atomic number =   73
effective nuclear charge =   73
electron count =   54
net charge =   19
basis set = approximate basis set limit (UGBS)      
exchange correlation functional = PW91PW91            
cutoff radius (picometer) =  300
number of shells =   50
prepared by = Thomas A. Manz      
prepared date = July 2010           
net magnetization =    0
density in atomic units:
0.58467660E+05
0.24435191E+03
0.47298412E+02
0.24307510E+02
0.13479926E+02
0.55976496E+01
0.24091849E+01
0.13569037E+01
0.91860831E+00
0.67460865E+00
0.48947281E+00
0.34401181E+00
0.24104798E+00
0.16384292E+00
0.11003947E+00
0.72586089E-01
0.47110207E-01
0.30982506E-01
0.20071836E-01
0.12943066E-01
0.83447201E-02
0.53730626E-02
0.34759892E-02
0.22518514E-02
0.14567883E-02
0.94230560E-03
0.61103993E-03
0.40086792E-03
0.26090781E-03
0.16911996E-03
0.11009986E-03
0.71387272E-04
0.46428231E-04
0.30081550E-04
0.19462195E-04
0.12671497E-04
0.82771585E-05
0.53958802E-05
0.34956049E-05
0.22765225E-05
0.14899473E-05
0.96754184E-06
0.63036981E-06
0.41148095E-06
0.26730999E-06
0.17396509E-06
0.11267326E-06
0.72806287E-07
0.46964978E-07
0.30401591E-07
