atomic number =   74
effective nuclear charge =   74
electron count =    4
net charge =   70
basis set = approximate basis set limit (UGBS)      
exchange correlation functional = PW91PW91            
cutoff radius (picometer) =  300
number of shells =   50
prepared by = Thomas A. Manz      
prepared date = July 2010           
net magnetization =    0
density in atomic units:
0.58395062E+05
0.42058187E+01
0.10035583E-01
0.12452851E-04
0.31893328E-05
0.76056460E-06
0.58850702E-06
0.29752101E-06
0.23804326E-07
0.10582905E-06
0.69323541E-07
0.81925169E-08
0.51723403E-08
0.17032914E-07
0.16359413E-07
0.76291693E-08
0.13094612E-08
0.22475720E-09
0.16196684E-08
0.28388476E-08
0.28628393E-08
0.20202648E-08
0.10171006E-08
0.31187899E-09
0.26742207E-10
0.61011557E-10
0.23231896E-09
0.39134673E-09
0.47111964E-09
0.45669857E-09
0.37462863E-09
0.26271263E-09
0.15573008E-09
0.72679786E-10
0.22098675E-10
0.21037562E-11
0.40660470E-11
0.18887210E-10
0.38429523E-10
0.55892277E-10
0.67721294E-10
0.72791030E-10
0.71250277E-10
0.64558088E-10
0.54483279E-10
0.42992693E-10
0.31467457E-10
0.21135265E-10
0.12709287E-10
0.65499021E-11
