atomic number =   43
effective nuclear charge =   43
electron count =   36
net charge =    7
basis set = approximate basis set limit (UGBS)      
exchange correlation functional = PW91PW91            
cutoff radius (picometer) =  300
number of shells =   50
prepared by = Thomas A. Manz      
prepared date = July 2010           
net magnetization =    0
density in atomic units:
0.10566999E+05
0.11851809E+03
0.45620102E+02
0.22813234E+02
0.90497427E+01
0.33246143E+01
0.16597724E+01
0.11454360E+01
0.85736859E+00
0.63590068E+00
0.44797054E+00
0.30134827E+00
0.20216911E+00
0.13158005E+00
0.84845215E-01
0.53880811E-01
0.33737987E-01
0.21498935E-01
0.13511188E-01
0.84626330E-02
0.53043817E-02
0.33218060E-02
0.20913472E-02
0.13185169E-02
0.83034864E-03
0.52276964E-03
0.33016838E-03
0.21113238E-03
0.13392868E-03
0.84630316E-04
0.53734988E-04
0.33982855E-04
0.21571059E-04
0.13646751E-04
0.86290793E-05
0.54989046E-05
0.35219109E-05
0.22555607E-05
0.14385988E-05
0.92507071E-06
0.59961911E-06
0.38671286E-06
0.25096764E-06
0.16363718E-06
0.10639648E-06
0.69390708E-07
0.45066734E-07
0.29186108E-07
0.18814811E-07
0.12121507E-07
