atomic number =   46
effective nuclear charge =   46
electron count =   30
net charge =   16
basis set = approximate basis set limit (UGBS)      
exchange correlation functional = PW91PW91            
cutoff radius (picometer) =  300
number of shells =   50
prepared by = Thomas A. Manz      
prepared date = July 2010           
net magnetization =    0
density in atomic units:
0.13129370E+05
0.12505255E+03
0.50364307E+02
0.21935591E+02
0.75489645E+01
0.23218870E+01
0.88599890E+00
0.45676640E+00
0.26255712E+00
0.15624599E+00
0.90003714E-01
0.49936403E-01
0.28223842E-01
0.15509662E-01
0.84889233E-02
0.45902627E-02
0.24432945E-02
0.13363799E-02
0.71850966E-03
0.38439568E-03
0.20554438E-03
0.10947994E-03
0.58519323E-04
0.31234853E-04
0.16575208E-04
0.87637718E-05
0.46362325E-05
0.24906842E-05
0.13219952E-05
0.69777849E-06
0.37174289E-06
0.19805513E-06
0.10707309E-06
0.58547002E-07
0.32703056E-07
0.19001547E-07
0.11503409E-07
0.72454980E-08
0.47362403E-08
0.32391880E-08
0.22983475E-08
0.16530876E-08
0.12026423E-08
0.87339613E-09
0.62160416E-09
0.43081474E-09
0.28530181E-09
0.17703901E-09
0.10016998E-09
0.49564162E-10
