atomic number =   43
effective nuclear charge =   43
electron count =   12
net charge =   31
basis set = approximate basis set limit (UGBS)      
exchange correlation functional = PW91PW91            
cutoff radius (picometer) =  300
number of shells =   50
prepared by = Thomas A. Manz      
prepared date = July 2010           
net magnetization =    0
density in atomic units:
0.10482013E+05
0.79520851E+02
0.83267899E+01
0.30959959E+01
0.11964403E+01
0.34591049E+00
0.88696852E-01
0.23398697E-01
0.57088002E-02
0.13646542E-02
0.30807502E-03
0.65453918E-04
0.15851081E-04
0.38912940E-05
0.98873056E-06
0.24700452E-06
0.52261541E-07
0.89840810E-08
0.83751345E-09
0.49033277E-09
0.78401979E-09
0.64843036E-09
0.32913483E-09
0.88272591E-10
0.66630122E-11
0.46262820E-10
0.13015439E-09
0.19787975E-09
0.22533191E-09
0.21027262E-09
0.16724377E-09
0.11365441E-09
0.64866820E-10
0.28534250E-10
0.76209533E-11
0.56072692E-12
0.30677526E-11
0.10871274E-10
0.20271200E-10
0.28253351E-10
0.33348095E-10
0.35168028E-10
0.33931854E-10
0.30361429E-10
0.25322024E-10
0.19741932E-10
0.14254608E-10
0.94142255E-11
0.55308570E-11
0.27473915E-11
