atomic number =   51
effective nuclear charge =   51
electron count =    4
net charge =   47
basis set = approximate basis set limit (UGBS)      
exchange correlation functional = PW91PW91            
cutoff radius (picometer) =  300
number of shells =   50
prepared by = Thomas A. Manz      
prepared date = July 2010           
net magnetization =    0
density in atomic units:
0.17463533E+05
0.18467785E+02
0.50141239E+00
0.85289553E-02
0.16440095E-03
0.29196135E-05
0.14877497E-06
0.87359957E-07
0.86732488E-08
0.36626009E-07
0.22801849E-07
0.24998397E-08
0.19403317E-08
0.59640524E-08
0.55869278E-08
0.25507165E-08
0.41822687E-09
0.86730866E-10
0.58318622E-09
0.99841613E-09
0.99533892E-09
0.69613071E-09
0.34688341E-09
0.10436085E-09
0.84791106E-11
0.22755459E-10
0.83375057E-10
0.13867223E-09
0.16582943E-09
0.16002087E-09
0.13079211E-09
0.91373929E-10
0.53928247E-10
0.24995412E-10
0.74889634E-11
0.68015027E-12
0.15189199E-11
0.68082905E-11
0.13696697E-10
0.19816477E-10
0.23931910E-10
0.25662408E-10
0.25079156E-10
0.22694525E-10
0.19126865E-10
0.15072650E-10
0.11015138E-10
0.73852721E-11
0.44302752E-11
0.22743075E-11
