atomic number =   43
effective nuclear charge =   43
electron count =    4
net charge =   39
basis set = approximate basis set limit (UGBS)      
exchange correlation functional = PW91PW91            
cutoff radius (picometer) =  300
number of shells =   50
prepared by = Thomas A. Manz      
prepared date = July 2010           
net magnetization =    0
density in atomic units:
0.99909863E+04
0.23669378E+02
0.14909470E+01
0.59833705E-01
0.23622259E-02
0.65440268E-04
0.12493441E-05
0.53955919E-07
0.85058867E-08
0.13706710E-07
0.74278481E-08
0.75920198E-09
0.74039991E-09
0.20573105E-08
0.18691675E-08
0.83469537E-09
0.13183987E-09
0.33487223E-10
0.20447351E-09
0.34172098E-09
0.33685449E-09
0.23370533E-09
0.11546362E-09
0.34239726E-10
0.27206848E-11
0.81530520E-11
0.28874752E-10
0.47522077E-10
0.56505186E-10
0.54334010E-10
0.44294533E-10
0.30858923E-10
0.18155139E-10
0.83760256E-11
0.24855513E-11
0.22094718E-12
0.53939698E-12
0.23543045E-11
0.46998685E-11
0.67747010E-11
0.81640675E-11
0.87425588E-11
0.85320405E-11
0.77126361E-11
0.64940206E-11
0.51133412E-11
0.37338678E-11
0.25003096E-11
0.14975595E-11
0.76720433E-12
