atomic number =   97
effective nuclear charge =   97
electron count =    2
net charge =   95
basis set = approximate basis set limit (UGBS)      
exchange correlation functional = PW91PW91            
cutoff radius (picometer) =  300
number of shells =   50
prepared by = Thomas A. Manz      
prepared date = July 2010           
net magnetization =    0
density in atomic units:
0.11444894E+06
0.93911431E-03
0.76284872E-04
0.24519930E-04
0.53430190E-05
0.14857310E-05
0.10145141E-05
0.54770351E-06
0.40136676E-07
0.18189228E-06
0.12291007E-06
0.15182399E-07
0.84633305E-08
0.29082790E-07
0.28352328E-07
0.13382216E-07
0.23546205E-08
0.36501072E-09
0.27277534E-08
0.48452908E-08
0.49178186E-08
0.34871406E-08
0.17651129E-08
0.54656318E-09
0.48238222E-10
0.10102418E-09
0.39265707E-09
0.66590633E-09
0.80451251E-09
0.78171558E-09
0.64256134E-09
0.45138712E-09
0.26816888E-09
0.12558539E-09
0.38468308E-10
0.37493697E-11
0.67388664E-11
0.31879246E-10
0.65230064E-10
0.95130605E-10
0.11544392E-09
0.12424027E-09
0.12170960E-09
0.11036465E-09
0.93197575E-10
0.73594408E-10
0.53902913E-10
0.36236323E-10
0.21818219E-10
0.11264807E-10
