atomic number =  103
effective nuclear charge =  103
electron count =   30
net charge =   73
basis set = approximate basis set limit (UGBS)      
exchange correlation functional = PW91PW91            
cutoff radius (picometer) =  300
number of shells =   50
prepared by = Thomas A. Manz      
prepared date = July 2010           
net magnetization =    0
density in atomic units:
0.16534589E+06
0.18656013E+03
0.12602276E+02
0.17880335E+01
0.19841985E+00
0.14145473E-01
0.88524661E-03
0.65733082E-04
0.38553126E-05
0.73524137E-06
0.36393467E-06
0.48594686E-07
0.26279402E-07
0.81862780E-07
0.79633708E-07
0.38058207E-07
0.71821433E-08
0.13833140E-08
0.78122566E-08
0.13689473E-07
0.13918091E-07
0.99339994E-08
0.50999098E-08
0.16475937E-08
0.20657860E-09
0.32078765E-09
0.11215843E-08
0.18852406E-08
0.22786357E-08
0.22214288E-08
0.18349383E-08
0.12981860E-08
0.78033252E-09
0.37424186E-09
0.12328756E-09
0.20232481E-10
0.24516356E-10
0.92596958E-10
0.18516988E-09
0.26922839E-09
0.32686148E-09
0.35257108E-09
0.34633374E-09
0.31503744E-09
0.26714478E-09
0.21198884E-09
0.15623132E-09
0.10599098E-09
0.64750483E-10
0.34355570E-10
