atomic number =  109
effective nuclear charge =  109
electron count =   10
net charge =   99
basis set = approximate basis set limit (UGBS)      
exchange correlation functional = PW91PW91            
cutoff radius (picometer) =  300
number of shells =   50
prepared by = Thomas A. Manz      
prepared date = July 2010           
net magnetization =    0
density in atomic units:
0.18313862E+06
0.40730521E+00
0.23536306E-03
0.61502877E-04
0.13628496E-04
0.38610015E-05
0.25822524E-05
0.14158250E-05
0.11343060E-06
0.46323760E-06
0.31755854E-06
0.42624762E-07
0.22389823E-07
0.74057219E-07
0.72834666E-07
0.35051983E-07
0.66753141E-08
0.11792852E-08
0.69593145E-08
0.12342160E-07
0.12613491E-07
0.90353893E-08
0.46557043E-08
0.15123884E-08
0.18920375E-09
0.28035393E-09
0.10007205E-08
0.16927498E-08
0.20529167E-08
0.20056599E-08
0.16589634E-08
0.11756623E-08
0.70780742E-09
0.34018882E-09
0.11243522E-09
0.18337104E-10
0.21405922E-10
0.82402252E-10
0.16577488E-09
0.24163940E-09
0.29394870E-09
0.31736946E-09
0.31208366E-09
0.28403752E-09
0.24097557E-09
0.19128271E-09
0.14110479E-09
0.95758887E-10
0.58545828E-10
0.31098082E-10
