atomic number =   24
effective nuclear charge =   24
electron count =   10
net charge =   14
basis set = approximate basis set limit (UGBS)      
exchange correlation functional = PW91PW91            
cutoff radius (picometer) =  300
number of shells =   50
prepared by = Thomas A. Manz      
prepared date = July 2010           
net magnetization =    0
density in atomic units:
0.16339799E+04
0.63143501E+02
0.21496563E+02
0.55703425E+01
0.12888559E+01
0.24959908E+00
0.47322664E-01
0.99452361E-02
0.19829497E-02
0.40290688E-03
0.79154888E-04
0.14306454E-04
0.28833481E-05
0.58410916E-06
0.13103282E-06
0.33565279E-07
0.88799519E-08
0.23960414E-08
0.50161114E-09
0.76327770E-10
0.47634174E-10
0.73270605E-10
0.73776207E-10
0.52698085E-10
0.27901166E-10
0.10976832E-10
0.45254304E-11
0.54994815E-11
0.96041612E-11
0.13436024E-10
0.15162122E-10
0.14541372E-10
0.12194861E-10
0.90070789E-11
0.58462111E-11
0.33140799E-11
0.16193864E-11
0.73903942E-12
0.52777135E-12
0.76537409E-12
0.12146259E-11
0.17018010E-11
0.20877998E-11
0.23095321E-11
0.23550213E-11
0.22397505E-11
0.20024058E-11
0.16895624E-11
0.13460624E-11
0.10130841E-11
