atomic number =   38
effective nuclear charge =   38
electron count =   10
net charge =   28
basis set = approximate basis set limit (UGBS)      
exchange correlation functional = PW91PW91            
cutoff radius (picometer) =  300
number of shells =   50
prepared by = Thomas A. Manz      
prepared date = May 2010            
net magnetization =    0
density in atomic units:
0.69250337E+04
0.85986282E+02
0.80334129E+01
0.54835439E+00
0.36028724E-01
0.17913639E-02
0.84991232E-04
0.60781522E-05
0.40206442E-06
0.21099760E-07
0.42269250E-08
0.10867329E-08
0.35770473E-09
0.97077479E-09
0.11264454E-08
0.68628564E-09
0.23003500E-09
0.59256669E-10
0.87233595E-10
0.16093996E-09
0.18608193E-09
0.15395300E-09
0.96884854E-10
0.45944665E-10
0.16166539E-10
0.77355917E-11
0.12450902E-10
0.21000927E-10
0.27581156E-10
0.29442067E-10
0.26772444E-10
0.21215675E-10
0.14803122E-10
0.89689254E-11
0.46464941E-11
0.21248934E-11
0.11379491E-11
0.12534653E-11
0.20084121E-11
0.29549353E-11
0.37818433E-11
0.43288407E-11
0.45110382E-11
0.43610432E-11
0.39413815E-11
0.33561199E-11
0.26916715E-11
0.20302130E-11
0.14340497E-11
0.94556231E-12
