atomic number =   45
effective nuclear charge =   45
electron count =   18
net charge =   27
basis set = approximate basis set limit (UGBS)      
exchange correlation functional = PW91PW91            
cutoff radius (picometer) =  300
number of shells =   50
prepared by = Thomas A. Manz      
prepared date = July 2010           
net magnetization =    0
density in atomic units:
0.12164841E+05
0.82288216E+02
0.22454586E+02
0.11282631E+02
0.40712423E+01
0.11006144E+01
0.26940829E+00
0.68739280E-01
0.16426731E-01
0.39208052E-02
0.88941632E-03
0.18645283E-03
0.43304804E-04
0.10038179E-04
0.24636311E-05
0.63813485E-06
0.16006111E-06
0.41090313E-07
0.93746744E-08
0.22741720E-08
0.98420849E-09
0.64908895E-09
0.37788783E-09
0.15554263E-09
0.42370402E-10
0.33980114E-10
0.81046121E-10
0.13344433E-09
0.16426310E-09
0.16434652E-09
0.13986411E-09
0.10276939E-09
0.65220808E-10
0.34454974E-10
0.14310420E-10
0.49021286E-11
0.36271153E-11
0.74890016E-11
0.13648424E-10
0.19615230E-10
0.23964634E-10
0.26131463E-10
0.25985802E-10
0.23978852E-10
0.20658529E-10
0.16704088E-10
0.12613961E-10
0.88405637E-11
0.56730931E-11
0.32741516E-11
