atomic number =   48
effective nuclear charge =   48
electron count =   18
net charge =   30
basis set = approximate basis set limit (UGBS)      
exchange correlation functional = PW91PW91            
cutoff radius (picometer) =  300
number of shells =   50
prepared by = Thomas A. Manz      
prepared date = July 2010           
net magnetization =    0
density in atomic units:
0.14970547E+05
0.79817268E+02
0.25386148E+02
0.10809267E+02
0.32332773E+01
0.72180575E+00
0.14651504E+00
0.31494629E-01
0.63198060E-02
0.12834404E-02
0.25018770E-03
0.44060387E-04
0.83874829E-05
0.15244810E-05
0.29142026E-06
0.63340650E-07
0.15001786E-07
0.44877013E-08
0.19322166E-08
0.13452366E-08
0.10322877E-08
0.67307426E-09
0.33757575E-09
0.11198264E-09
0.17516386E-10
0.21258282E-10
0.68938931E-10
0.11583287E-09
0.14106885E-09
0.13896086E-09
0.11638795E-09
0.83971295E-10
0.52002475E-10
0.26343705E-10
0.99054601E-11
0.25136705E-11
0.18703893E-11
0.54055289E-11
0.10743108E-10
0.15834639E-10
0.19517601E-10
0.21353683E-10
0.21284845E-10
0.19655867E-10
0.16943167E-10
0.13703402E-10
0.10350534E-10
0.72559164E-11
0.46536789E-11
0.26781893E-11
