atomic number =   49
effective nuclear charge =   49
electron count =   30
net charge =   19
basis set = approximate basis set limit (UGBS)      
exchange correlation functional = PW91PW91            
cutoff radius (picometer) =  300
number of shells =   50
prepared by = Thomas A. Manz      
prepared date = July 2010           
net magnetization =    0
density in atomic units:
0.16101096E+05
0.13433214E+03
0.55224838E+02
0.20362188E+02
0.60788636E+01
0.18022177E+01
0.74516237E+00
0.40033737E+00
0.22162871E+00
0.12165635E+00
0.63513681E-01
0.31696122E-01
0.16210385E-01
0.80402885E-02
0.39737192E-02
0.19425789E-02
0.93369972E-03
0.46450892E-03
0.22688844E-03
0.11020484E-03
0.53430820E-04
0.25713040E-04
0.12375425E-04
0.59214281E-05
0.28017189E-05
0.13152095E-05
0.61594983E-06
0.29352401E-06
0.13805167E-06
0.64756129E-07
0.30886209E-07
0.14917040E-07
0.74740498E-08
0.39073855E-08
0.21778834E-08
0.13301512E-08
0.89206187E-09
0.65249617E-09
0.51085070E-09
0.42067599E-09
0.35471054E-09
0.29844341E-09
0.24715979E-09
0.19923406E-09
0.15414434E-09
0.11378242E-09
0.78811159E-10
0.50447785E-10
0.29079843E-10
0.14621972E-10
