atomic number =   46
effective nuclear charge =   46
electron count =   10
net charge =   36
basis set = approximate basis set limit (UGBS)      
exchange correlation functional = PW91PW91            
cutoff radius (picometer) =  300
number of shells =   50
prepared by = Thomas A. Manz      
prepared date = July 2010           
net magnetization =    0
density in atomic units:
0.12777318E+05
0.70854523E+02
0.30406218E+01
0.94293535E-01
0.29788390E-02
0.71375085E-04
0.11346611E-05
0.51129241E-07
0.75573174E-08
0.22821959E-07
0.13216190E-07
0.14199775E-08
0.12508293E-08
0.35698655E-08
0.32899417E-08
0.14951755E-08
0.25115870E-09
0.61600676E-10
0.35252187E-09
0.59376681E-09
0.58991484E-09
0.41301540E-09
0.20705770E-09
0.63814662E-10
0.67683151E-11
0.14630958E-10
0.49978639E-10
0.82427461E-10
0.98430541E-10
0.95101538E-10
0.77930294E-10
0.54669429E-10
0.32500464E-10
0.15305923E-10
0.48295075E-11
0.67662022E-12
0.10655547E-11
0.41166558E-11
0.81484515E-11
0.11750990E-10
0.14193952E-10
0.15240630E-10
0.14920115E-10
0.13528486E-10
0.11431482E-10
0.90390308E-11
0.66346121E-11
0.44773408E-11
0.27135169E-11
0.14209888E-11
