atomic number =   49
effective nuclear charge =   49
electron count =   36
net charge =   13
basis set = approximate basis set limit (UGBS)      
exchange correlation functional = PW91PW91            
cutoff radius (picometer) =  300
number of shells =   50
prepared by = Thomas A. Manz      
prepared date = July 2010           
net magnetization =    0
density in atomic units:
0.16104401E+05
0.13679263E+03
0.57147457E+02
0.20488180E+02
0.65673108E+01
0.29043307E+01
0.19101214E+01
0.13273766E+01
0.85474581E+00
0.52121246E+00
0.29916722E+00
0.16449006E+00
0.92243165E-01
0.50339345E-01
0.27391041E-01
0.14749559E-01
0.78396145E-02
0.42971866E-02
0.23236426E-02
0.12540746E-02
0.67795790E-03
0.36562610E-03
0.19811188E-03
0.10737337E-03
0.58019472E-04
0.31355099E-04
0.17032287E-04
0.94330944E-05
0.51850852E-05
0.28416771E-05
0.15697052E-05
0.86251646E-06
0.47547445E-06
0.26034789E-06
0.14195409E-06
0.78037573E-07
0.43165244E-07
0.23968754E-07
0.13359634E-07
0.76543296E-08
0.45426178E-08
0.27617009E-08
0.17461006E-08
0.11446945E-08
0.76656737E-09
0.52263877E-09
0.35584324E-09
0.24020094E-09
0.15899178E-09
0.10298062E-09
