atomic number =   41
effective nuclear charge =   41
electron count =    2
net charge =   39
basis set = approximate basis set limit (UGBS)      
exchange correlation functional = PW91PW91            
cutoff radius (picometer) =  300
number of shells =   50
prepared by = Thomas A. Manz      
prepared date = July 2010           
net magnetization =    0
density in atomic units:
0.76424150E+04
0.10974810E+00
0.15468855E-04
0.86289759E-06
0.19634739E-06
0.46597055E-07
0.38853834E-07
0.19028887E-07
0.15805689E-08
0.70018946E-08
0.45215187E-08
0.52245186E-09
0.34895722E-09
0.11297958E-08
0.10781473E-08
0.50012067E-09
0.84861680E-10
0.15176320E-10
0.10798464E-09
0.18826664E-09
0.18936436E-09
0.13335533E-09
0.66986243E-10
0.20454848E-10
0.17306516E-11
0.40924699E-11
0.15462499E-10
0.25978417E-10
0.31230477E-10
0.30245653E-10
0.24796257E-10
0.17374702E-10
0.10289949E-10
0.47960971E-11
0.14542683E-11
0.13706645E-12
0.27237235E-12
0.12572455E-11
0.25526473E-11
0.37091237E-11
0.44913621E-11
0.48263490E-11
0.47219490E-11
0.42774668E-11
0.36092594E-11
0.28470980E-11
0.20834608E-11
0.13987882E-11
0.84077461E-12
0.43301080E-12
