atomic number =   40
effective nuclear charge =   40
electron count =   30
net charge =   10
basis set = approximate basis set limit (UGBS)      
exchange correlation functional = PW91PW91            
cutoff radius (picometer) =  300
number of shells =   50
prepared by = Thomas A. Manz      
prepared date = July 2010           
net magnetization =    0
density in atomic units:
0.83676279E+04
0.11174718E+03
0.37145863E+02
0.21293556E+02
0.10140953E+02
0.39708788E+01
0.15614427E+01
0.71539289E+00
0.37353104E+00
0.22486183E+00
0.14385359E+00
0.93689851E-01
0.62771849E-01
0.41225661E-01
0.26852030E-01
0.17167145E-01
0.10770286E-01
0.68436633E-02
0.42727012E-02
0.26508719E-02
0.16426689E-02
0.10153766E-02
0.63000794E-03
0.39077050E-03
0.24154867E-03
0.14893099E-03
0.91884198E-04
0.57307272E-04
0.35364370E-04
0.21691891E-04
0.13352794E-04
0.81724993E-05
0.50142635E-05
0.30603630E-05
0.18626620E-05
0.11405009E-05
0.69999248E-06
0.42811939E-06
0.25957905E-06
0.15814028E-06
0.96819562E-07
0.58716385E-07
0.35763055E-07
0.21869660E-07
0.13340171E-07
0.81956335E-08
0.50435656E-08
0.31303111E-08
0.19646766E-08
0.12605724E-08
