atomic number =   71
effective nuclear charge =   71
electron count =   28
net charge =   43
basis set = approximate basis set limit (UGBS)      
exchange correlation functional = PW91PW91            
cutoff radius (picometer) =  300
number of shells =   50
prepared by = Thomas A. Manz      
prepared date = July 2010           
net magnetization =    0
density in atomic units:
0.53054996E+05
0.21865604E+03
0.38964123E+02
0.37661457E+01
0.30305880E+00
0.18077426E-01
0.10106610E-02
0.84392974E-04
0.68971808E-05
0.56890144E-06
0.12202482E-06
0.21086986E-07
0.12510119E-07
0.29985443E-07
0.29582095E-07
0.15514512E-07
0.42872914E-08
0.14823680E-08
0.31753666E-08
0.50580939E-08
0.51826583E-08
0.38563410E-08
0.21613860E-08
0.88159985E-09
0.27881039E-09
0.23343330E-09
0.46139731E-09
0.70864614E-09
0.84699825E-09
0.83577034E-09
0.70793582E-09
0.52148424E-09
0.33507938E-09
0.18288102E-09
0.83002445E-10
0.35490097E-10
0.27690050E-10
0.44967613E-10
0.73576492E-10
0.10153905E-09
0.12187200E-09
0.13181661E-09
0.13080990E-09
0.12078684E-09
0.10447169E-09
0.85055074E-10
0.64919910E-10
0.46313262E-10
0.30593899E-10
0.18585205E-10
