atomic number =   51
effective nuclear charge =   51
electron count =   30
net charge =   21
basis set = approximate basis set limit (UGBS)      
exchange correlation functional = PW91PW91            
cutoff radius (picometer) =  300
number of shells =   50
prepared by = Thomas A. Manz      
prepared date = July 2010           
net magnetization =    0
density in atomic units:
0.18324404E+05
0.14155986E+03
0.57411194E+02
0.18888205E+02
0.52136030E+01
0.15683746E+01
0.68475097E+00
0.36518604E+00
0.19170812E+00
0.98134615E-01
0.47508571E-01
0.21922406E-01
0.10420493E-01
0.47920840E-02
0.21935396E-02
0.99297543E-03
0.44102091E-03
0.20388345E-03
0.92517024E-04
0.41769599E-04
0.18820041E-04
0.83970053E-05
0.37352875E-05
0.16445008E-05
0.71178926E-06
0.30418059E-06
0.12929209E-06
0.56173413E-07
0.24177490E-07
0.10510127E-07
0.47598228E-08
0.22444777E-08
0.11295916E-08
0.60562250E-09
0.35017145E-09
0.22409118E-09
0.16115032E-09
0.13033181E-09
0.11558626E-09
0.10785385E-09
0.10154703E-09
0.93783849E-10
0.83841947E-10
0.71998255E-10
0.58967463E-10
0.45946379E-10
0.33740483E-10
0.23187573E-10
0.14747341E-10
0.86345557E-11
