atomic number =   36
effective nuclear charge =   36
electron count =   28
net charge =    8
basis set = approximate basis set limit (UGBS)      
exchange correlation functional = PW91PW91            
cutoff radius (picometer) =  300
number of shells =   50
prepared by = Thomas A. Manz      
prepared date = July 2010           
net magnetization =    0
density in atomic units:
0.59512227E+04
0.10473520E+03
0.28584129E+02
0.17406242E+02
0.10313525E+02
0.50455618E+01
0.23064981E+01
0.10717635E+01
0.48384330E+00
0.22155872E+00
0.10029674E+00
0.45228250E-01
0.21890337E-01
0.10580464E-01
0.51994054E-02
0.25591957E-02
0.12502772E-02
0.63775870E-03
0.32332263E-03
0.16512195E-03
0.85152300E-04
0.44006018E-04
0.22884047E-04
0.11887476E-04
0.61414648E-05
0.31704035E-05
0.16490532E-05
0.88125830E-06
0.47238569E-06
0.25617530E-06
0.14240145E-06
0.80019156E-07
0.45701281E-07
0.26142501E-07
0.14915704E-07
0.85130720E-08
0.48032089E-08
0.26387059E-08
0.13873008E-08
0.70135880E-09
0.33589184E-09
0.14587116E-09
0.57844073E-10
0.22424668E-10
0.12235797E-10
0.12837642E-10
0.16577009E-10
0.19870963E-10
0.21405712E-10
0.21041006E-10
