atomic number =   77
effective nuclear charge =   77
electron count =    4
net charge =   73
basis set = approximate basis set limit (UGBS)      
exchange correlation functional = PW91PW91            
cutoff radius (picometer) =  300
number of shells =   50
prepared by = Thomas A. Manz      
prepared date = July 2010           
net magnetization =    0
density in atomic units:
0.66203258E+05
0.32555583E+01
0.57766731E-02
0.11374118E-04
0.37577645E-05
0.91974289E-06
0.70976324E-06
0.35952095E-06
0.28632579E-07
0.12746105E-06
0.83601783E-07
0.98985486E-08
0.62133352E-08
0.20502460E-07
0.19705743E-07
0.91944008E-08
0.15798957E-08
0.26985514E-09
0.19481448E-08
0.34170242E-08
0.34468675E-08
0.24330540E-08
0.12251905E-08
0.37586881E-09
0.32269638E-10
0.73332083E-10
0.27948821E-09
0.47094206E-09
0.56708255E-09
0.54980964E-09
0.45105678E-09
0.31629419E-09
0.18753474E-09
0.87533640E-10
0.26627128E-10
0.25369568E-11
0.48871601E-11
0.22722709E-10
0.46244428E-10
0.67256742E-10
0.81498912E-10
0.87635253E-10
0.85771841E-10
0.77710026E-10
0.65592337E-10
0.51759961E-10
0.37887190E-10
0.25442369E-10
0.15303260E-10
0.78864649E-11
