atomic number =  107
effective nuclear charge =  107
electron count =   12
net charge =   95
basis set = approximate basis set limit (UGBS)      
exchange correlation functional = PW91PW91            
cutoff radius (picometer) =  300
number of shells =   50
prepared by = Thomas A. Manz      
prepared date = July 2010           
net magnetization =    0
density in atomic units:
0.18067517E+06
0.22162281E+02
0.29333571E+00
0.21513468E-02
0.19811543E-04
0.42165143E-05
0.33963461E-05
0.17252551E-05
0.14643724E-06
0.60456995E-06
0.39989769E-06
0.50232611E-07
0.30265333E-07
0.97238676E-07
0.93931959E-07
0.44374612E-07
0.80503160E-08
0.14973538E-08
0.92607655E-08
0.16212466E-07
0.16420932E-07
0.11665648E-07
0.59419318E-08
0.18816715E-08
0.20858604E-09
0.36826145E-09
0.13277693E-08
0.22326381E-08
0.26943270E-08
0.26203852E-08
0.21588318E-08
0.15219956E-08
0.91004770E-09
0.43209783E-09
0.13833329E-09
0.19404442E-10
0.26827145E-10
0.10894385E-09
0.21921946E-09
0.31871822E-09
0.38665920E-09
0.41639395E-09
0.40862211E-09
0.37119033E-09
0.31413444E-09
0.24876143E-09
0.18292551E-09
0.12361055E-09
0.75091482E-10
0.39426275E-10
