atomic number =   16
effective nuclear charge =   16
electron count =   10
net charge =    6
basis set = approximate basis set limit (UGBS)      
exchange correlation functional = PW91PW91            
cutoff radius (picometer) =  300
number of shells =   50
prepared by = Thomas A. Manz      
prepared date = July 2010           
net magnetization =    0
density in atomic units:
0.51743555E+03
0.29996712E+02
0.14955712E+02
0.80140343E+01
0.38366625E+01
0.16091899E+01
0.65796119E+00
0.27910346E+00
0.11444627E+00
0.47220871E-01
0.19016564E-01
0.75026671E-02
0.31679538E-02
0.13158162E-02
0.54928497E-03
0.22755073E-03
0.92215108E-04
0.39162795E-04
0.16377366E-04
0.68683753E-05
0.29036491E-05
0.12264073E-05
0.52062529E-06
0.22046154E-06
0.92719389E-07
0.39197381E-07
0.16983488E-07
0.78356663E-08
0.37872181E-08
0.19558122E-08
0.10899169E-08
0.63657429E-09
0.38222359E-09
0.22660049E-09
0.12836142E-09
0.67650288E-10
0.31419332E-10
0.11932138E-10
0.38124386E-11
0.29329698E-11
0.57455403E-11
0.99019430E-11
0.13716797E-10
0.16350431E-10
0.17527724E-10
0.17249558E-10
0.15830167E-10
0.13634699E-10
0.11041156E-10
0.84222533E-11
