atomic number =   44
effective nuclear charge =   44
electron count =   28
net charge =   16
basis set = approximate basis set limit (UGBS)      
exchange correlation functional = PW91PW91            
cutoff radius (picometer) =  300
number of shells =   50
prepared by = Thomas A. Manz      
prepared date = July 2010           
net magnetization =    0
density in atomic units:
0.11338196E+05
0.11955692E+03
0.45630833E+02
0.22199127E+02
0.85230579E+01
0.26142242E+01
0.75736326E+00
0.23166272E+00
0.68056770E-01
0.20365801E-01
0.59417463E-02
0.16654816E-02
0.51417114E-03
0.15870245E-03
0.50686693E-04
0.16447551E-04
0.51546604E-05
0.16784437E-05
0.51733986E-06
0.15568392E-06
0.47373337E-07
0.14940531E-07
0.50238449E-08
0.17543131E-08
0.62334393E-09
0.26747840E-09
0.19825704E-09
0.21396424E-09
0.23113839E-09
0.22183413E-09
0.18690594E-09
0.13802531E-09
0.89151957E-10
0.48883644E-10
0.21974608E-10
0.86898874E-11
0.59000990E-11
0.99055313E-11
0.17160315E-10
0.24521491E-10
0.30089587E-10
0.33062234E-10
0.33191935E-10
0.30955252E-10
0.27010073E-10
0.22167485E-10
0.17056617E-10
0.12260254E-10
0.81576013E-11
0.49803738E-11
