atomic number =  109
effective nuclear charge =  109
electron count =   12
net charge =   97
basis set = approximate basis set limit (UGBS)      
exchange correlation functional = PW91PW91            
cutoff radius (picometer) =  300
number of shells =   50
prepared by = Thomas A. Manz      
prepared date = July 2010           
net magnetization =    0
density in atomic units:
0.18981348E+06
0.20904259E+02
0.23593524E+00
0.15770545E-02
0.19067124E-04
0.46872474E-05
0.36679487E-05
0.18788451E-05
0.15910702E-06
0.65456641E-06
0.43441926E-06
0.55021971E-07
0.32735660E-07
0.10526432E-06
0.10184588E-06
0.48214620E-07
0.88040979E-08
0.16384966E-08
0.10018888E-07
0.17553029E-07
0.17794379E-07
0.12651886E-07
0.64540049E-08
0.20511979E-08
0.23230241E-09
0.40008294E-09
0.14368652E-08
0.24166089E-08
0.29174529E-08
0.28391607E-08
0.23398559E-08
0.16510430E-08
0.98815089E-09
0.46998266E-09
0.15121815E-09
0.21822214E-10
0.29381279E-10
0.11798855E-09
0.23727209E-09
0.34497308E-09
0.41866152E-09
0.45113305E-09
0.44274318E-09
0.40223741E-09
0.34053649E-09
0.26975125E-09
0.19843568E-09
0.13419983E-09
0.81587549E-10
0.42923422E-10
