atomic number =   30
effective nuclear charge =   30
electron count =   28
net charge =    2
basis set = approximate basis set limit (UGBS)      
exchange correlation functional = PW91PW91            
cutoff radius (picometer) =  300
number of shells =   50
prepared by = Thomas A. Manz      
prepared date = July 2010           
net magnetization =    0
density in atomic units:
0.33280737E+04
0.91534103E+02
0.22214315E+02
0.10017900E+02
0.72348065E+01
0.48320374E+01
0.29702384E+01
0.17958783E+01
0.10569324E+01
0.62961471E+00
0.37502891E+00
0.22619738E+00
0.14446622E+00
0.93396746E-01
0.61948810E-01
0.41682918E-01
0.28385293E-01
0.19984445E-01
0.14140639E-01
0.10108604E-01
0.73026610E-02
0.53131068E-02
0.39027897E-02
0.28831372E-02
0.21373418E-02
0.15899127E-02
0.11892560E-02
0.89914486E-03
0.67811657E-03
0.51168952E-03
0.38824647E-03
0.29463449E-03
0.22466677E-03
0.17131293E-03
0.13086734E-03
0.10056043E-03
0.77582503E-04
0.59882455E-04
0.46123772E-04
0.35699934E-04
0.27751435E-04
0.21501752E-04
0.16723423E-04
0.13040151E-04
0.10159501E-04
0.79366146E-05
0.61972546E-05
0.48409147E-05
0.37845100E-05
0.29681873E-05
