atomic number =   40
effective nuclear charge =   40
electron count =   12
net charge =   28
basis set = approximate basis set limit (UGBS)      
exchange correlation functional = PW91PW91            
cutoff radius (picometer) =  300
number of shells =   50
prepared by = Thomas A. Manz      
prepared date = July 2010           
net magnetization =    0
density in atomic units:
0.83045127E+04
0.84880379E+02
0.90153713E+01
0.30256619E+01
0.13709008E+01
0.48211700E+00
0.15005933E+00
0.47078494E-01
0.13677942E-01
0.38957631E-02
0.10568262E-02
0.27369009E-03
0.78522033E-04
0.22126816E-04
0.62153772E-05
0.16916691E-05
0.41500218E-06
0.99755205E-07
0.20241634E-07
0.34515253E-08
0.59096805E-09
0.18824352E-09
0.96025680E-10
0.55128933E-10
0.63202756E-10
0.10519681E-09
0.15008425E-09
0.17477214E-09
0.17273598E-09
0.14771190E-09
0.11050189E-09
0.71419447E-10
0.38923309E-10
0.16405176E-10
0.45946680E-11
0.16979523E-11
0.45768467E-11
0.10365733E-10
0.16695437E-10
0.21727177E-10
0.24643393E-10
0.25342204E-10
0.23972505E-10
0.21162091E-10
0.17452250E-10
0.13489543E-10
0.96681994E-11
0.63515061E-11
0.37256621E-11
0.18714106E-11
