atomic number =   52
effective nuclear charge =   52
electron count =   46
net charge =    6
basis set = approximate basis set limit (UGBS)      
exchange correlation functional = PW91PW91            
cutoff radius (picometer) =  300
number of shells =   50
prepared by = Thomas A. Manz      
prepared date = July 2010           
net magnetization =    0
density in atomic units:
0.19523547E+05
0.15653937E+03
0.61185463E+02
0.18486147E+02
0.71730957E+01
0.49418969E+01
0.37653229E+01
0.26356099E+01
0.16823974E+01
0.10280374E+01
0.60207051E+00
0.34485629E+00
0.20446613E+00
0.11983881E+00
0.70796438E-01
0.41765060E-01
0.24563354E-01
0.14915529E-01
0.90092504E-02
0.54628234E-02
0.33318477E-02
0.20358211E-02
0.12525559E-02
0.77283732E-03
0.47691865E-03
0.29498839E-03
0.18359697E-03
0.11614704E-03
0.73112387E-04
0.45961948E-04
0.29085324E-04
0.18339244E-04
0.11599207E-04
0.72979337E-05
0.45776505E-05
0.28862084E-05
0.18240100E-05
0.11498594E-05
0.72046652E-06
0.45488414E-06
0.28966235E-06
0.18371198E-06
0.11754603E-06
0.75801289E-07
0.48922178E-07
0.31807538E-07
0.20681421E-07
0.13463809E-07
0.87653698E-08
0.57222063E-08
