atomic number =  109
effective nuclear charge =  109
electron count =   80
net charge =   29
basis set = approximate basis set limit (UGBS)      
exchange correlation functional = PW91PW91            
cutoff radius (picometer) =  300
number of shells =   50
prepared by = Thomas A. Manz      
prepared date = July 2010           
net magnetization =    0
density in atomic units:
0.19368925E+06
0.37482755E+03
0.12030769E+03
0.31813498E+02
0.15833939E+02
0.80520668E+01
0.35675812E+01
0.15993992E+01
0.73549646E+00
0.36555192E+00
0.18784009E+00
0.98145463E-01
0.54265700E-01
0.29662212E-01
0.16252575E-01
0.87994011E-02
0.46773795E-02
0.25462536E-02
0.13580883E-02
0.71898079E-03
0.38002912E-03
0.20009275E-03
0.10589110E-03
0.56108507E-04
0.29666298E-04
0.15693404E-04
0.83424866E-05
0.45192860E-05
0.24248327E-05
0.12942659E-05
0.69482388E-06
0.36962282E-06
0.19639037E-06
0.10297659E-06
0.53307964E-07
0.27583358E-07
0.14235248E-07
0.73737603E-08
0.39211603E-08
0.22911746E-08
0.15408780E-08
0.11840701E-08
0.10008731E-08
0.87556862E-09
0.76059736E-09
0.64395805E-09
0.52484850E-09
0.41033896E-09
0.30698719E-09
0.22077531E-09
