atomic number =   70
effective nuclear charge =   70
electron count =   54
net charge =   16
basis set = approximate basis set limit (UGBS)      
exchange correlation functional = PW91PW91            
cutoff radius (picometer) =  300
number of shells =   50
prepared by = Thomas A. Manz      
prepared date = July 2010           
net magnetization =    0
density in atomic units:
0.51109137E+05
0.23745836E+03
0.47998989E+02
0.21996403E+02
0.13504980E+02
0.61768436E+01
0.26670554E+01
0.13809838E+01
0.86588103E+00
0.62763488E+00
0.47170624E+00
0.35174385E+00
0.26283094E+00
0.19139382E+00
0.13773358E+00
0.97373500E-01
0.67807347E-01
0.47661860E-01
0.33047695E-01
0.22811551E-01
0.15737811E-01
0.10842915E-01
0.74977200E-02
0.51870914E-02
0.35828818E-02
0.24726726E-02
0.17099046E-02
0.11938957E-02
0.82809001E-03
0.57293358E-03
0.39822992E-03
0.27620094E-03
0.19236143E-03
0.13372910E-03
0.93005736E-04
0.65098320E-04
0.45731940E-04
0.32091873E-04
0.22415947E-04
0.15727765E-04
0.11082304E-04
0.77578807E-05
0.54456459E-05
0.38299659E-05
0.26829641E-05
0.18826273E-05
0.13167778E-05
0.91876399E-06
0.64054467E-06
0.44714977E-06
