atomic number =   52
effective nuclear charge =   52
electron count =   30
net charge =   22
basis set = approximate basis set limit (UGBS)      
exchange correlation functional = PW91PW91            
cutoff radius (picometer) =  300
number of shells =   50
prepared by = Thomas A. Manz      
prepared date = July 2010           
net magnetization =    0
density in atomic units:
0.19512406E+05
0.14545409E+03
0.58157204E+02
0.18074604E+02
0.48291607E+01
0.14780920E+01
0.65875995E+00
0.34649739E+00
0.17608047E+00
0.86763777E-01
0.40363472E-01
0.17879937E-01
0.81833126E-02
0.36190397E-02
0.15918652E-02
0.69229380E-03
0.29504058E-03
0.13131040E-03
0.57396763E-04
0.24988149E-04
0.10863463E-04
0.46724726E-05
0.19994689E-05
0.84361386E-06
0.34794434E-06
0.14075938E-06
0.56309595E-07
0.22972722E-07
0.93301269E-08
0.38867936E-08
0.17457626E-08
0.85081980E-09
0.45528467E-09
0.26050950E-09
0.15866049E-09
0.10625345E-09
0.81468277E-10
0.72438708E-10
0.71523426E-10
0.73294752E-10
0.74228443E-10
0.72563976E-10
0.67755045E-10
0.60325460E-10
0.51031873E-10
0.41040355E-10
0.31193111E-10
0.22325640E-10
0.14950839E-10
0.93690177E-11
