atomic number =   69
effective nuclear charge =   69
electron count =   30
net charge =   39
basis set = approximate basis set limit (UGBS)      
exchange correlation functional = PW91PW91            
cutoff radius (picometer) =  300
number of shells =   50
prepared by = Thomas A. Manz      
prepared date = July 2010           
net magnetization =    0
density in atomic units:
0.48709910E+05
0.21596014E+03
0.43192627E+02
0.68328214E+01
0.20377867E+01
0.69259238E+00
0.21633084E+00
0.67143381E-01
0.19076079E-01
0.52566077E-02
0.13614538E-02
0.33078258E-03
0.88411442E-04
0.23092323E-04
0.60604652E-05
0.15867926E-05
0.39719524E-06
0.11018869E-06
0.34623845E-07
0.15306057E-07
0.90289136E-08
0.54371032E-08
0.28150899E-08
0.11200333E-08
0.34703346E-09
0.26192901E-09
0.50944537E-09
0.78935858E-09
0.95027208E-09
0.94275054E-09
0.80212748E-09
0.59369232E-09
0.38362755E-09
0.21126254E-09
0.97550655E-10
0.43062349E-10
0.33690838E-10
0.52961836E-10
0.85292780E-10
0.11705772E-09
0.14024970E-09
0.15163121E-09
0.15057731E-09
0.13915806E-09
0.12053605E-09
0.98301790E-10
0.75227907E-10
0.53845230E-10
0.35743304E-10
0.21879963E-10
