atomic number =  107
effective nuclear charge =  107
electron count =   30
net charge =   77
basis set = approximate basis set limit (UGBS)      
exchange correlation functional = PW91PW91            
cutoff radius (picometer) =  300
number of shells =   50
prepared by = Thomas A. Manz      
prepared date = July 2010           
net magnetization =    0
density in atomic units:
0.18346655E+06
0.17223297E+03
0.11260661E+02
0.13789513E+01
0.12616087E+00
0.71951314E-02
0.36665561E-03
0.25305568E-04
0.13075401E-05
0.64066626E-06
0.40169982E-06
0.51186639E-07
0.30611972E-07
0.97424540E-07
0.94163468E-07
0.44591161E-07
0.81782812E-08
0.15475594E-08
0.92770378E-08
0.16230214E-07
0.16450800E-07
0.11700702E-07
0.59728151E-08
0.19031134E-08
0.22026189E-09
0.37322240E-09
0.13297556E-08
0.22344440E-08
0.26971732E-08
0.26248645E-08
0.21640862E-08
0.15271959E-08
0.91458691E-09
0.43562187E-09
0.14078555E-09
0.20920243E-10
0.27652833E-10
0.10934272E-09
0.21935867E-09
0.31886332E-09
0.38693124E-09
0.41678866E-09
0.40916776E-09
0.37183984E-09
0.31486408E-09
0.24948718E-09
0.18360963E-09
0.12422176E-09
0.75598069E-10
0.39828783E-10
