atomic number =  109
effective nuclear charge =  109
electron count =   46
net charge =   63
basis set = approximate basis set limit (UGBS)      
exchange correlation functional = PW91PW91            
cutoff radius (picometer) =  300
number of shells =   50
prepared by = Thomas A. Manz      
prepared date = July 2010           
net magnetization =    0
density in atomic units:
0.19288705E+06
0.23829805E+03
0.73085480E+02
0.13881616E+02
0.17428101E+01
0.14892739E+00
0.11675192E-01
0.12317442E-02
0.11652058E-03
0.89461682E-05
0.90789280E-06
0.15798939E-06
0.47491241E-07
0.12029243E-06
0.14687687E-06
0.97558228E-07
0.39204956E-07
0.12964654E-07
0.12275903E-07
0.19872973E-07
0.23358737E-07
0.20297156E-07
0.13786415E-07
0.74481403E-08
0.33175700E-08
0.17088587E-08
0.18359890E-08
0.26407614E-08
0.33811594E-08
0.36608039E-08
0.34273011E-08
0.28301081E-08
0.20890039E-08
0.13750417E-08
0.81140167E-09
0.44913201E-09
0.27030891E-09
0.23203128E-09
0.28395428E-09
0.37441231E-09
0.46383505E-09
0.52944449E-09
0.55743726E-09
0.54768740E-09
0.50596294E-09
0.44226056E-09
0.36617823E-09
0.28769731E-09
0.21426817E-09
0.15172018E-09
