atomic number =  107
effective nuclear charge =  107
electron count =   36
net charge =   71
basis set = approximate basis set limit (UGBS)      
exchange correlation functional = PW91PW91            
cutoff radius (picometer) =  300
number of shells =   50
prepared by = Thomas A. Manz      
prepared date = July 2010           
net magnetization =    0
density in atomic units:
0.18353802E+06
0.19724475E+03
0.35771919E+02
0.62709093E+01
0.69541836E+00
0.48647385E-01
0.31177120E-02
0.27671971E-03
0.19511341E-04
0.11472132E-05
0.48970628E-06
0.11961539E-06
0.36561186E-07
0.11256108E-06
0.13119462E-06
0.79410427E-07
0.26082741E-07
0.62177308E-08
0.95459898E-08
0.18242750E-07
0.21333603E-07
0.17762444E-07
0.11236144E-07
0.53538134E-08
0.18757140E-08
0.85459123E-09
0.13659851E-08
0.23427129E-08
0.31114520E-08
0.33482779E-08
0.30645992E-08
0.24438698E-08
0.17170952E-08
0.10488148E-08
0.54877991E-09
0.25267374E-09
0.13217183E-09
0.13926613E-09
0.22156697E-09
0.32821279E-09
0.42302067E-09
0.48702459E-09
0.51061677E-09
0.49561444E-09
0.45008847E-09
0.38511161E-09
0.31031602E-09
0.23538238E-09
0.16736051E-09
0.11124455E-09
