atomic number =   45
effective nuclear charge =   45
electron count =   28
net charge =   17
basis set = approximate basis set limit (UGBS)      
exchange correlation functional = PW91PW91            
cutoff radius (picometer) =  300
number of shells =   50
prepared by = Thomas A. Manz      
prepared date = July 2010           
net magnetization =    0
density in atomic units:
0.12188969E+05
0.12196562E+03
0.47697014E+02
0.22083597E+02
0.80077572E+01
0.23133616E+01
0.63190120E+00
0.18316309E+00
0.50913703E-01
0.14445682E-01
0.39974912E-02
0.10569693E-02
0.30805686E-03
0.89777546E-04
0.27278275E-04
0.85249176E-05
0.25915613E-05
0.82040901E-06
0.24310907E-06
0.68610518E-07
0.18891184E-07
0.51759841E-08
0.14523681E-08
0.38910952E-09
0.88274874E-10
0.43282340E-10
0.84360317E-10
0.13667148E-09
0.16938545E-09
0.17238642E-09
0.15083508E-09
0.11581622E-09
0.78897534E-10
0.47310336E-10
0.25200543E-10
0.13283385E-10
0.94290522E-11
0.11006618E-10
0.15407146E-10
0.20264046E-10
0.24077738E-10
0.26157011E-10
0.26235214E-10
0.24603649E-10
0.21692538E-10
0.18090883E-10
0.14247081E-10
0.10596808E-10
0.74278413E-11
0.49251514E-11
