atomic number =   41
effective nuclear charge =   41
electron count =   18
net charge =   23
basis set = approximate basis set limit (UGBS)      
exchange correlation functional = PW91PW91            
cutoff radius (picometer) =  300
number of shells =   50
prepared by = Thomas A. Manz      
prepared date = July 2010           
net magnetization =    0
density in atomic units:
0.90212021E+04
0.86907051E+02
0.18481735E+02
0.10830831E+02
0.50072274E+01
0.17466155E+01
0.54831499E+00
0.17538528E+00
0.52644242E-01
0.15653927E-01
0.44411579E-02
0.11986510E-02
0.35637044E-03
0.10490842E-03
0.31337375E-04
0.92829932E-05
0.25726899E-05
0.72607855E-06
0.18716695E-06
0.45222066E-07
0.10661190E-07
0.25792659E-08
0.67462674E-09
0.18719008E-09
0.92493804E-10
0.13625855E-09
0.21311961E-09
0.26785507E-09
0.28162975E-09
0.25483518E-09
0.20240050E-09
0.14093590E-09
0.85399507E-10
0.43121621E-10
0.17213231E-10
0.63387980E-11
0.62489965E-11
0.12595264E-10
0.21522700E-10
0.29769180E-10
0.35536334E-10
0.38192012E-10
0.37702414E-10
0.34679017E-10
0.29869777E-10
0.24239315E-10
0.18436672E-10
0.13093187E-10
0.85889976E-11
0.51523976E-11
