atomic number =   76
effective nuclear charge =   76
electron count =   30
net charge =   46
basis set = approximate basis set limit (UGBS)      
exchange correlation functional = PW91PW91            
cutoff radius (picometer) =  300
number of shells =   50
prepared by = Thomas A. Manz      
prepared date = July 2010           
net magnetization =    0
density in atomic units:
0.66317055E+05
0.23137363E+03
0.32445431E+02
0.51904130E+01
0.15872458E+01
0.42899719E+00
0.10059290E+00
0.24097782E-01
0.53372909E-02
0.11608083E-02
0.23425258E-03
0.42020256E-04
0.81232783E-05
0.15105385E-05
0.30434794E-06
0.72467365E-07
0.19154262E-07
0.82765466E-08
0.76625994E-08
0.81630498E-08
0.69779436E-08
0.45447255E-08
0.21625051E-08
0.63210642E-09
0.90759698E-10
0.24535377E-09
0.66550104E-09
0.10210612E-08
0.11752189E-08
0.11084461E-08
0.89135183E-09
0.61408767E-09
0.35763414E-09
0.16370164E-09
0.49547103E-10
0.82711624E-11
0.18081557E-10
0.56816590E-10
0.10501977E-09
0.14668773E-09
0.17382716E-09
0.18420461E-09
0.17844241E-09
0.16044177E-09
0.13451533E-09
0.10556001E-09
0.76843178E-10
0.51360735E-10
0.30751599E-10
0.15826816E-10
