atomic number =   50
effective nuclear charge =   50
electron count =   46
net charge =    4
basis set = approximate basis set limit (UGBS)      
exchange correlation functional = PW91PW91            
cutoff radius (picometer) =  300
number of shells =   50
prepared by = Thomas A. Manz      
prepared date = July 2010           
net magnetization =    0
density in atomic units:
0.17196814E+05
0.14672652E+03
0.59709953E+02
0.19858381E+02
0.69837093E+01
0.42232547E+01
0.33188698E+01
0.24927232E+01
0.17162427E+01
0.11280315E+01
0.71052182E+00
0.43794194E+00
0.27789363E+00
0.17470592E+00
0.11085930E+00
0.70416860E-01
0.44758432E-01
0.29293420E-01
0.19121515E-01
0.12546347E-01
0.82886545E-02
0.54960470E-02
0.36736168E-02
0.24657294E-02
0.16575349E-02
0.11171817E-02
0.75694249E-03
0.51954988E-03
0.35489831E-03
0.24209403E-03
0.16603386E-03
0.11361836E-03
0.78047291E-04
0.53491294E-04
0.36654033E-04
0.25283693E-04
0.17513827E-04
0.12128730E-04
0.83701361E-05
0.58138839E-05
0.40639493E-05
0.28275222E-05
0.19771935E-05
0.13872884E-05
0.97106215E-06
0.68164650E-06
0.47701059E-06
0.33326441E-06
0.23241705E-06
0.16230932E-06
