atomic number =   50
effective nuclear charge =   50
electron count =   30
net charge =   20
basis set = approximate basis set limit (UGBS)      
exchange correlation functional = PW91PW91            
cutoff radius (picometer) =  300
number of shells =   50
prepared by = Thomas A. Manz      
prepared date = July 2010           
net magnetization =    0
density in atomic units:
0.17187650E+05
0.13784761E+03
0.56431633E+02
0.19656279E+02
0.56311202E+01
0.16754897E+01
0.71298641E+00
0.38301212E+00
0.20694482E+00
0.10983682E+00
0.55264466E-01
0.26538145E-01
0.13091632E-01
0.62560211E-02
0.29773768E-02
0.14015299E-02
0.64797956E-03
0.31089969E-03
0.14640907E-03
0.68562418E-04
0.32039894E-04
0.14843652E-04
0.68681134E-05
0.31535433E-05
0.14286599E-05
0.64112851E-06
0.28685059E-06
0.13088766E-06
0.59116665E-07
0.26684353E-07
0.12372458E-07
0.58592411E-08
0.29087577E-08
0.15217477E-08
0.85607460E-09
0.53158788E-09
0.36630191E-09
0.27819536E-09
0.22823955E-09
0.19716906E-09
0.17371019E-09
0.15171486E-09
0.12969094E-09
0.10727894E-09
0.84912827E-10
0.64049537E-10
0.45398890E-10
0.29900447E-10
0.17969732E-10
0.97013439E-11
