atomic number =   61
effective nuclear charge =   61
electron count =    2
net charge =   59
basis set = approximate basis set limit (UGBS)      
exchange correlation functional = PW91PW91            
cutoff radius (picometer) =  300
number of shells =   50
prepared by = Thomas A. Manz      
prepared date = July 2010           
net magnetization =    0
density in atomic units:
0.27681006E+05
0.72170130E-03
0.13015131E-04
0.44006688E-05
0.10170530E-05
0.26609840E-06
0.19531493E-06
0.10173861E-06
0.77718934E-08
0.35024559E-07
0.23285819E-07
0.28100193E-08
0.16691146E-08
0.56153335E-08
0.54331251E-08
0.25490199E-08
0.44294599E-09
0.72113808E-10
0.53002214E-09
0.93534414E-09
0.94635444E-09
0.66946448E-09
0.33797759E-09
0.10416009E-09
0.90609733E-11
0.19781451E-10
0.76141253E-10
0.12870248E-09
0.15523595E-09
0.15066441E-09
0.12373115E-09
0.86842297E-10
0.51540498E-10
0.24097540E-10
0.73557393E-11
0.70876128E-12
0.13186889E-11
0.61853946E-11
0.12620622E-10
0.18383664E-10
0.22291276E-10
0.23976009E-10
0.23478533E-10
0.21283931E-10
0.17968993E-10
0.14183568E-10
0.10384838E-10
0.69790142E-11
0.41992195E-11
0.21663533E-11
