atomic number =   52
effective nuclear charge =   52
electron count =   48
net charge =    4
basis set = approximate basis set limit (UGBS)      
exchange correlation functional = PW91PW91            
cutoff radius (picometer) =  300
number of shells =   50
prepared by = Thomas A. Manz      
prepared date = July 2010           
net magnetization =    0
density in atomic units:
0.19533947E+05
0.15668179E+03
0.61262466E+02
0.18500755E+02
0.72390532E+01
0.50040116E+01
0.37909200E+01
0.26395266E+01
0.16843156E+01
0.10391133E+01
0.62491423E+00
0.37679073E+00
0.24092878E+00
0.15731911E+00
0.10669455E+00
0.74399635E-01
0.53121522E-01
0.39391194E-01
0.29485492E-01
0.22308670E-01
0.17022850E-01
0.13042550E-01
0.10045597E-01
0.77470560E-02
0.59683593E-02
0.45924499E-02
0.35367997E-02
0.27400462E-02
0.21106964E-02
0.16215211E-02
0.12484030E-02
0.95861172E-03
0.73734636E-03
0.56556950E-03
0.43336317E-03
0.33310996E-03
0.25638507E-03
0.19692701E-03
0.15057811E-03
0.11546008E-03
0.88758650E-04
0.67928799E-04
0.52127034E-04
0.40085335E-04
0.30773364E-04
0.23692186E-04
0.18214487E-04
0.14009069E-04
0.10777138E-04
0.83134482E-05
