atomic number =   70
effective nuclear charge =   70
electron count =   10
net charge =   60
basis set = approximate basis set limit (UGBS)      
exchange correlation functional = PW91PW91            
cutoff radius (picometer) =  300
number of shells =   50
prepared by = Thomas A. Manz      
prepared date = July 2010           
net magnetization =    0
density in atomic units:
0.49178625E+05
0.17782301E+02
0.68753302E-01
0.16551731E-03
0.33970830E-05
0.64235184E-06
0.46298456E-06
0.24541063E-06
0.21292745E-07
0.83497589E-07
0.56425726E-07
0.76045339E-08
0.42144634E-08
0.13415156E-07
0.13113098E-07
0.63095507E-08
0.12191482E-08
0.23552407E-09
0.12724732E-08
0.22368871E-08
0.22827074E-08
0.16367719E-08
0.84638796E-09
0.27834773E-09
0.38165325E-10
0.53307154E-10
0.18250106E-09
0.30714287E-09
0.37223563E-09
0.36383088E-09
0.30138958E-09
0.21406019E-09
0.12937534E-09
0.62679473E-10
0.21209583E-10
0.39131159E-11
0.42432950E-11
0.15119151E-10
0.30118893E-10
0.43816759E-10
0.53308535E-10
0.57591425E-10
0.56671615E-10
0.51643700E-10
0.43874904E-10
0.34883037E-10
0.25791619E-10
0.17562660E-10
0.10794319E-10
0.57894271E-11
