atomic number =   54
effective nuclear charge =   54
electron count =   18
net charge =   36
basis set = approximate basis set limit (UGBS)      
exchange correlation functional = PW91PW91            
cutoff radius (picometer) =  300
number of shells =   50
prepared by = Thomas A. Manz      
prepared date = July 2010           
net magnetization =    0
density in atomic units:
0.21878031E+05
0.79539581E+02
0.29121969E+02
0.84918938E+01
0.17460043E+01
0.26468456E+00
0.36859557E-01
0.56073810E-02
0.77261374E-03
0.11067179E-03
0.16559932E-04
0.23184234E-05
0.32441440E-06
0.34206373E-07
0.70276620E-08
0.42234283E-08
0.15169849E-08
0.37875100E-09
0.71730660E-09
0.13982064E-08
0.16397260E-08
0.13697500E-08
0.87117824E-09
0.41869255E-09
0.14822533E-09
0.65720977E-10
0.10192466E-09
0.17568436E-09
0.23505645E-09
0.25456318E-09
0.23436303E-09
0.18804053E-09
0.13299860E-09
0.81935882E-10
0.43323772E-10
0.20142422E-10
0.10383755E-10
0.10490412E-10
0.16518852E-10
0.24580088E-10
0.31869635E-10
0.36925057E-10
0.38887393E-10
0.37926662E-10
0.34616324E-10
0.29754362E-10
0.24102229E-10
0.18390173E-10
0.13165785E-10
0.88217983E-11
