atomic number =   71
effective nuclear charge =   71
electron count =   18
net charge =   53
basis set = approximate basis set limit (UGBS)      
exchange correlation functional = PW91PW91            
cutoff radius (picometer) =  300
number of shells =   50
prepared by = Thomas A. Manz      
prepared date = July 2010           
net magnetization =    0
density in atomic units:
0.52816637E+05
0.10347012E+03
0.20819813E+02
0.19350673E+01
0.14013296E+00
0.70050331E-02
0.32864223E-03
0.24456225E-04
0.15264295E-05
0.18849369E-06
0.11258952E-06
0.18531031E-07
0.10595417E-07
0.29778418E-07
0.29279498E-07
0.14580670E-07
0.32579275E-08
0.82012241E-09
0.29271658E-08
0.50245954E-08
0.51672355E-08
0.37729397E-08
0.20188109E-08
0.72572670E-09
0.15052729E-09
0.15094213E-09
0.42115528E-09
0.69555711E-09
0.84564239E-09
0.83399071E-09
0.69969536E-09
0.50576310E-09
0.31418457E-09
0.16024859E-09
0.61825607E-10
0.17912869E-10
0.14631320E-10
0.36398363E-10
0.68795997E-10
0.99409474E-10
0.12126915E-09
0.13177689E-09
0.13062892E-09
0.12004167E-09
0.10298747E-09
0.82879668E-10
0.62194229E-10
0.43267383E-10
0.27457812E-10
0.15560966E-10
