atomic number =   81
effective nuclear charge =   81
electron count =   46
net charge =   35
basis set = approximate basis set limit (UGBS)      
exchange correlation functional = PW91PW91            
cutoff radius (picometer) =  300
number of shells =   50
prepared by = Thomas A. Manz      
prepared date = July 2010           
net magnetization =    0
density in atomic units:
0.81123352E+05
0.25022914E+03
0.50118557E+02
0.27623844E+02
0.11580173E+02
0.34449031E+01
0.91405177E+00
0.25077522E+00
0.65026470E-01
0.17163251E-01
0.43969597E-02
0.10564941E-02
0.27704579E-03
0.72120951E-04
0.19886376E-04
0.58433470E-05
0.17200479E-05
0.53665133E-06
0.15777253E-06
0.46041947E-07
0.15275800E-07
0.63995640E-08
0.30553897E-08
0.14108666E-08
0.74052353E-09
0.73837114E-09
0.10489473E-08
0.13602742E-08
0.15119314E-08
0.14542729E-08
0.12356300E-08
0.93667596E-09
0.64061390E-09
0.39620152E-09
0.22995794E-09
0.14284593E-09
0.11680010E-09
0.13043819E-09
0.16352371E-09
0.19825787E-09
0.22372429E-09
0.23497265E-09
0.23082652E-09
0.21355040E-09
0.18687592E-09
0.15545773E-09
0.12278442E-09
0.92211648E-10
0.65907328E-10
0.45245710E-10
