atomic number =   24
effective nuclear charge =   24
electron count =   12
net charge =   12
basis set = approximate basis set limit (UGBS)      
exchange correlation functional = PW91PW91            
cutoff radius (picometer) =  300
number of shells =   50
prepared by = Thomas A. Manz      
prepared date = July 2010           
net magnetization =    0
density in atomic units:
0.16518313E+04
0.64580673E+02
0.21774700E+02
0.56400986E+01
0.16079696E+01
0.68942195E+00
0.43874058E+00
0.30029994E+00
0.19474293E+00
0.12145259E+00
0.71972854E-01
0.41095529E-01
0.23948379E-01
0.13625598E-01
0.77383691E-02
0.43471470E-02
0.24082649E-02
0.13690866E-02
0.76667924E-03
0.42806714E-03
0.23945139E-03
0.13385116E-03
0.75304335E-04
0.42436164E-04
0.23859724E-04
0.13402432E-04
0.75462440E-05
0.43112100E-05
0.24345218E-05
0.13648912E-05
0.76801530E-06
0.42868811E-06
0.23954863E-06
0.13283196E-06
0.73294231E-07
0.40718540E-07
0.22705548E-07
0.12642080E-07
0.69993691E-08
0.39246060E-08
0.22347648E-08
0.12734297E-08
0.73925538E-09
0.43722492E-09
0.26132754E-09
0.15884910E-09
0.97425075E-10
0.60129089E-10
0.37359234E-10
0.23400082E-10
