atomic number =   38
effective nuclear charge =   38
electron count =    2
net charge =   36
basis set = approximate basis set limit (UGBS)      
exchange correlation functional = PW91PW91            
cutoff radius (picometer) =  300
number of shells =   50
prepared by = Thomas A. Manz      
prepared date = May 2010            
net magnetization =    0
density in atomic units:
0.59827593E+04
0.20968220E+00
0.76071694E-04
0.79835746E-06
0.14331360E-06
0.34049222E-07
0.28908492E-07
0.14045531E-07
0.11859353E-08
0.52344080E-08
0.33627356E-08
0.38517423E-09
0.26366148E-09
0.84700102E-09
0.80600776E-09
0.37299688E-09
0.62957820E-10
0.11496856E-10
0.81211392E-10
0.14122301E-09
0.14185665E-09
0.99802680E-10
0.50076186E-10
0.15258848E-10
0.12828766E-11
0.30891730E-11
0.11623718E-10
0.19501749E-10
0.23426320E-10
0.22677275E-10
0.18583505E-10
0.13014968E-10
0.77046217E-11
0.35885893E-11
0.10862255E-11
0.10181146E-12
0.20568856E-12
0.94567203E-12
0.19176947E-11
0.27847132E-11
0.33707698E-11
0.36206071E-11
0.35422210E-11
0.32081508E-11
0.27066149E-11
0.21349170E-11
0.15618473E-11
0.10485201E-11
0.63004999E-12
0.32441435E-12
