atomic number =   43
effective nuclear charge =   43
electron count =    2
net charge =   41
basis set = approximate basis set limit (UGBS)      
exchange correlation functional = PW91PW91            
cutoff radius (picometer) =  300
number of shells =   50
prepared by = Thomas A. Manz      
prepared date = July 2010           
net magnetization =    0
density in atomic units:
0.89147520E+04
0.70466615E-01
0.40864752E-05
0.10135603E-05
0.24304836E-06
0.58065474E-07
0.47722793E-07
0.23528386E-07
0.19322834E-08
0.85817149E-08
0.55617946E-08
0.64632660E-09
0.42499421E-09
0.13829127E-08
0.13220954E-08
0.61421479E-09
0.10455927E-09
0.18461019E-10
0.13193731E-09
0.23040866E-09
0.23193350E-09
0.16344071E-09
0.82152271E-10
0.25119141E-10
0.21335247E-11
0.49889246E-11
0.18899760E-10
0.31779246E-10
0.38218397E-10
0.37027558E-10
0.30364163E-10
0.21277872E-10
0.12606445E-10
0.58782341E-11
0.17839818E-11
0.16864208E-12
0.33218307E-12
0.15365577E-11
0.31218884E-11
0.45375613E-11
0.54958087E-11
0.59063076E-11
0.57790179E-11
0.52360382E-11
0.44179942E-11
0.34853951E-11
0.25507177E-11
0.17128119E-11
0.10296631E-11
0.53048370E-12
