atomic number =   53
effective nuclear charge =   53
electron count =   36
net charge =   17
basis set = approximate basis set limit (UGBS)      
exchange correlation functional = PW91PW91            
cutoff radius (picometer) =  300
number of shells =   50
prepared by = Thomas A. Manz      
prepared date = July 2010           
net magnetization =    0
density in atomic units:
0.20755496E+05
0.15360866E+03
0.60366722E+02
0.17471182E+02
0.58235927E+01
0.32058811E+01
0.20764718E+01
0.12652183E+01
0.69468731E+00
0.36109203E+00
0.17672612E+00
0.82864940E-01
0.40203623E-01
0.18936222E-01
0.88795330E-02
0.41118297E-02
0.18679774E-02
0.88303449E-03
0.41114629E-03
0.19130009E-03
0.89234098E-04
0.41411462E-04
0.19240906E-04
0.88931356E-05
0.40718478E-05
0.18603929E-05
0.85773894E-06
0.40958167E-06
0.19743307E-06
0.97248346E-07
0.49775085E-07
0.25971186E-07
0.13859541E-07
0.74035293E-08
0.39084789E-08
0.20325259E-08
0.10197654E-08
0.48517262E-09
0.21947344E-09
0.10656682E-09
0.69901904E-10
0.66877177E-10
0.74894008E-10
0.82396132E-10
0.84817424E-10
0.81293736E-10
0.72881624E-10
0.61375398E-10
0.48682211E-10
0.36487369E-10
