atomic number =   67
effective nuclear charge =   67
electron count =   18
net charge =   49
basis set = approximate basis set limit (UGBS)      
exchange correlation functional = PW91PW91            
cutoff radius (picometer) =  300
number of shells =   50
prepared by = Thomas A. Manz      
prepared date = July 2010           
net magnetization =    0
density in atomic units:
0.43859879E+05
0.96928246E+02
0.24373377E+02
0.29661894E+01
0.27330518E+00
0.17590899E-01
0.10759608E-02
0.90476198E-04
0.60820507E-05
0.32544750E-06
0.80213091E-07
0.12245452E-07
0.10312135E-07
0.27519269E-07
0.26555927E-07
0.13284798E-07
0.31293699E-08
0.86048019E-09
0.26539317E-08
0.45016151E-08
0.46539945E-08
0.34411602E-08
0.18851183E-08
0.71637868E-09
0.17601609E-09
0.15103212E-09
0.37686565E-09
0.61763777E-09
0.75494233E-09
0.75131723E-09
0.63747924E-09
0.46786747E-09
0.29710145E-09
0.15744288E-09
0.65871808E-10
0.22729867E-10
0.16398083E-10
0.33367580E-10
0.60899563E-10
0.87829917E-10
0.10765055E-09
0.11776302E-09
0.11758911E-09
0.10892319E-09
0.94301039E-10
0.76668567E-10
0.58315672E-10
0.41269030E-10
0.26853558E-10
0.15830786E-10
