atomic number =   53
effective nuclear charge =   53
electron count =   30
net charge =   23
basis set = approximate basis set limit (UGBS)      
exchange correlation functional = PW91PW91            
cutoff radius (picometer) =  300
number of shells =   50
prepared by = Thomas A. Manz      
prepared date = July 2010           
net magnetization =    0
density in atomic units:
0.20753342E+05
0.14951070E+03
0.58667618E+02
0.17231430E+02
0.44793501E+01
0.14018542E+01
0.63370937E+00
0.32684278E+00
0.16030817E+00
0.75918444E-01
0.33905674E-01
0.14407718E-01
0.63462136E-02
0.26980110E-02
0.11397409E-02
0.47582315E-03
0.19439208E-03
0.83232720E-04
0.35037272E-04
0.14719050E-04
0.61843893E-05
0.25701456E-05
0.10605526E-05
0.42946485E-06
0.16863802E-06
0.64237575E-07
0.23907434E-07
0.90107326E-08
0.33996110E-08
0.13742020E-08
0.65215339E-09
0.36157793E-09
0.22200532E-09
0.13993243E-09
0.89394638E-10
0.61501110E-10
0.49759714E-10
0.48633896E-10
0.53190417E-10
0.59077583E-10
0.63359644E-10
0.64622231E-10
0.62327608E-10
0.56976254E-10
0.49371115E-10
0.40668240E-10
0.31722437E-10
0.23403451E-10
0.16268721E-10
0.10692103E-10
