atomic number =  107
effective nuclear charge =  107
electron count =    2
net charge =  105
basis set = approximate basis set limit (UGBS)      
exchange correlation functional = PW91PW91            
cutoff radius (picometer) =  300
number of shells =   50
prepared by = Thomas A. Manz      
prepared date = July 2010           
net magnetization =    0
density in atomic units:
0.14909345E+06
0.13903399E-02
0.10596118E-03
0.34005225E-04
0.73524266E-05
0.20617686E-05
0.13943088E-05
0.75634517E-06
0.55150686E-07
0.25005963E-06
0.16932374E-06
0.20976278E-07
0.11601358E-07
0.39971056E-07
0.39005077E-07
0.18424398E-07
0.32465808E-08
0.50026894E-09
0.37462717E-08
0.66600769E-08
0.67619199E-08
0.47962461E-08
0.24285218E-08
0.75241174E-09
0.66524085E-10
0.13861064E-09
0.53940008E-09
0.91516966E-09
0.11058444E-08
0.10747527E-08
0.88343682E-09
0.62068500E-09
0.36879921E-09
0.17274465E-09
0.52939736E-10
0.51670105E-11
0.92479479E-11
0.43793410E-10
0.89630303E-10
0.13073538E-09
0.15867106E-09
0.17078523E-09
0.16730134E-09
0.15170430E-09
0.12812869E-09
0.10116370E-09
0.74109552E-10
0.49824280E-10
0.29998344E-10
0.15489962E-10
