atomic number =   28
effective nuclear charge =   28
electron count =    2
net charge =   26
basis set = approximate basis set limit (UGBS)      
exchange correlation functional = PW91PW91            
cutoff radius (picometer) =  300
number of shells =   50
prepared by = Thomas A. Manz      
prepared date = July 2010           
net magnetization =    0
density in atomic units:
0.22813196E+04
0.15467681E+01
0.53046038E-02
0.20097405E-04
0.68437700E-07
0.11096396E-07
0.13854800E-07
0.60163612E-08
0.59053989E-09
0.24844551E-08
0.15216282E-08
0.16170988E-09
0.13480979E-09
0.40695949E-09
0.37846121E-09
0.17175367E-09
0.27785895E-10
0.59901680E-11
0.39922444E-10
0.68012027E-10
0.67628535E-10
0.47214125E-10
0.23480379E-10
0.70384852E-11
0.56381267E-12
0.15597187E-11
0.56873659E-11
0.94421441E-11
0.11278693E-10
0.10877397E-10
0.88857602E-11
0.62049758E-11
0.36601516E-11
0.16951403E-11
0.50688750E-12
0.45673948E-13
0.10370575E-12
0.46370557E-12
0.93206367E-12
0.13478266E-11
0.16272293E-11
0.17449830E-11
0.17046941E-11
0.15421437E-11
0.12995664E-11
0.10239975E-11
0.74836323E-12
0.50160500E-12
0.30086483E-12
0.15441627E-12
