atomic number =   32
effective nuclear charge =   32
electron count =   10
net charge =   22
basis set = approximate basis set limit (UGBS)      
exchange correlation functional = PW91PW91            
cutoff radius (picometer) =  300
number of shells =   50
prepared by = Thomas A. Manz      
prepared date = July 2010           
net magnetization =    0
density in atomic units:
0.40052205E+04
0.85843605E+02
0.14200804E+02
0.17228703E+01
0.19385152E+00
0.17325446E-01
0.15221050E-02
0.16403959E-03
0.15816886E-04
0.15477024E-05
0.17176254E-06
0.19997733E-07
0.27067801E-08
0.11014274E-08
0.92784713E-09
0.45423937E-09
0.87297877E-10
0.16922639E-10
0.96341018E-10
0.16894328E-09
0.17131926E-09
0.12150281E-09
0.61499077E-10
0.19085161E-10
0.18824467E-11
0.39567264E-11
0.14326385E-10
0.23946373E-10
0.28759606E-10
0.27840581E-10
0.22815565E-10
0.15982025E-10
0.94610656E-11
0.44067597E-11
0.13392976E-11
0.13932807E-12
0.27835186E-12
0.11987802E-11
0.24015254E-11
0.34731319E-11
0.41954591E-11
0.44993427E-11
0.43965109E-11
0.39782184E-11
0.33533896E-11
0.26432591E-11
0.19324056E-11
0.12962401E-11
0.77814832E-12
0.40016531E-12
