atomic number =  107
effective nuclear charge =  107
electron count =   28
net charge =   79
basis set = approximate basis set limit (UGBS)      
exchange correlation functional = PW91PW91            
cutoff radius (picometer) =  300
number of shells =   50
prepared by = Thomas A. Manz      
prepared date = July 2010           
net magnetization =    0
density in atomic units:
0.18166538E+06
0.16255280E+03
0.29361098E+01
0.29550839E-01
0.31419229E-03
0.59631179E-05
0.34281666E-05
0.17342593E-05
0.14927456E-06
0.60482188E-06
0.40110967E-06
0.51081489E-07
0.30439029E-07
0.97269172E-07
0.94082679E-07
0.44567471E-07
0.81765688E-08
0.15449094E-08
0.92679322E-08
0.16218207E-07
0.16440707E-07
0.11694241E-07
0.59698908E-08
0.19023632E-08
0.22021608E-09
0.37293627E-09
0.13287633E-08
0.22330267E-08
0.26956384E-08
0.26232450E-08
0.21628297E-08
0.15263718E-08
0.91412650E-09
0.43541104E-09
0.14072049E-09
0.20915049E-10
0.27639058E-10
0.10927517E-09
0.21929034E-09
0.31875630E-09
0.38675207E-09
0.41658235E-09
0.40895781E-09
0.37166140E-09
0.31469724E-09
0.24935340E-09
0.18351591E-09
0.12415266E-09
0.75561377E-10
0.39808542E-10
