atomic number =   59
effective nuclear charge =   59
electron count =    2
net charge =   57
basis set = approximate basis set limit (UGBS)      
exchange correlation functional = PW91PW91            
cutoff radius (picometer) =  300
number of shells =   50
prepared by = Thomas A. Manz      
prepared date = July 2010           
net magnetization =    0
density in atomic units:
0.24860174E+05
0.13029270E-02
0.11210775E-04
0.38764929E-05
0.90171449E-06
0.23430546E-06
0.17336095E-06
0.89948145E-07
0.69033566E-08
0.31086124E-07
0.20631271E-07
0.24833660E-08
0.14851776E-08
0.49852260E-08
0.48196775E-08
0.22597586E-08
0.39215600E-09
0.64178947E-10
0.47083731E-09
0.83037671E-09
0.83984136E-09
0.59399224E-09
0.29978098E-09
0.92341183E-10
0.80208999E-11
0.17585766E-10
0.67623337E-10
0.11427672E-09
0.13779625E-09
0.13373160E-09
0.10981175E-09
0.77070295E-10
0.45735034E-10
0.21379669E-10
0.65236844E-11
0.62782158E-12
0.11722096E-11
0.54937604E-11
0.11207465E-10
0.16321963E-10
0.19790454E-10
0.21282864E-10
0.20842692E-10
0.18892268E-10
0.15947188E-10
0.12588767E-10
0.92184827E-11
0.61940058E-11
0.37268474E-11
0.19225207E-11
