atomic number =   43
effective nuclear charge =   43
electron count =   10
net charge =   33
basis set = approximate basis set limit (UGBS)      
exchange correlation functional = PW91PW91            
cutoff radius (picometer) =  300
number of shells =   50
prepared by = Thomas A. Manz      
prepared date = July 2010           
net magnetization =    0
density in atomic units:
0.10289825E+05
0.77836906E+02
0.44791193E+01
0.18729007E+00
0.78078741E-02
0.24194991E-03
0.60125235E-05
0.26478156E-06
0.21798813E-07
0.14473390E-07
0.74416739E-08
0.79190077E-09
0.75618806E-09
0.20588375E-08
0.18702644E-08
0.83799279E-09
0.13485632E-09
0.34956541E-10
0.20477975E-09
0.34172884E-09
0.33700029E-09
0.23409341E-09
0.11590304E-09
0.34592780E-10
0.29292499E-11
0.82380196E-11
0.28886366E-10
0.47522410E-10
0.56510054E-10
0.54357584E-10
0.44337502E-10
0.30915121E-10
0.18212903E-10
0.84243628E-11
0.25206096E-11
0.24258059E-12
0.55027109E-12
0.23571991E-11
0.47000737E-11
0.67747466E-11
0.81645107E-11
0.87438676E-11
0.85342922E-11
0.77162495E-11
0.64990192E-11
0.51194257E-11
0.37399879E-11
0.25065226E-11
0.15034750E-11
0.77241208E-12
