atomic number =  103
effective nuclear charge =  103
electron count =   12
net charge =   91
basis set = approximate basis set limit (UGBS)      
exchange correlation functional = PW91PW91            
cutoff radius (picometer) =  300
number of shells =   50
prepared by = Thomas A. Manz      
prepared date = July 2010           
net magnetization =    0
density in atomic units:
0.16285533E+06
0.24631908E+02
0.44696504E+00
0.40777633E-02
0.29369958E-04
0.33665110E-05
0.28657842E-05
0.14341176E-05
0.12176510E-06
0.50671161E-06
0.33348238E-06
0.41269654E-07
0.25369284E-07
0.81531581E-07
0.78552553E-07
0.36978264E-07
0.66250179E-08
0.12256975E-08
0.77710380E-08
0.13590167E-07
0.13745411E-07
0.97468522E-08
0.49514486E-08
0.15571445E-08
0.16500136E-09
0.30621858E-09
0.11137847E-08
0.18723807E-08
0.22573388E-08
0.21938096E-08
0.18055947E-08
0.12714247E-08
0.75883849E-09
0.35903477E-09
0.11376664E-09
0.15002551E-10
0.21938725E-10
0.91212343E-10
0.18388294E-09
0.26730243E-09
0.32416392E-09
0.34899517E-09
0.34216344E-09
0.31065339E-09
0.26278524E-09
0.20795404E-09
0.15272400E-09
0.10309659E-09
0.62496189E-10
0.32693223E-10
