atomic number =   38
effective nuclear charge =   38
electron count =   30
net charge =    8
basis set = approximate basis set limit (UGBS)      
exchange correlation functional = PW91PW91            
cutoff radius (picometer) =  300
number of shells =   50
prepared by = Thomas A. Manz      
prepared date = July 2010           
net magnetization =    0
density in atomic units:
0.70940859E+04
0.10829948E+03
0.32686665E+02
0.19734238E+02
0.10484507E+02
0.45664153E+01
0.19265436E+01
0.89210588E+00
0.44834381E+00
0.25786769E+00
0.16224496E+00
0.10779114E+00
0.75377278E-01
0.52427635E-01
0.36401503E-01
0.24908088E-01
0.16779192E-01
0.11416319E-01
0.76440424E-02
0.50845658E-02
0.33732948E-02
0.22289774E-02
0.14747462E-02
0.97359746E-03
0.63968956E-03
0.41878060E-03
0.27412834E-03
0.18111961E-03
0.11859578E-03
0.77339268E-04
0.50675721E-04
0.33104305E-04
0.21724212E-04
0.14226491E-04
0.93186763E-05
0.61492397E-05
0.40749173E-05
0.26969474E-05
0.17747652E-05
0.11737459E-05
0.77982816E-06
0.51398598E-06
0.33970210E-06
0.22480160E-06
0.14795268E-06
0.97479465E-07
0.63857613E-07
0.41672543E-07
0.27092476E-07
0.17609047E-07
