atomic number =   51
effective nuclear charge =   51
electron count =   18
net charge =   33
basis set = approximate basis set limit (UGBS)      
exchange correlation functional = PW91PW91            
cutoff radius (picometer) =  300
number of shells =   50
prepared by = Thomas A. Manz      
prepared date = July 2010           
net magnetization =    0
density in atomic units:
0.18197158E+05
0.78833595E+02
0.27712633E+02
0.98100071E+01
0.24324872E+01
0.44798198E+00
0.75376406E-01
0.13632449E-01
0.22787128E-02
0.39166538E-03
0.66539855E-04
0.10156392E-04
0.15967041E-05
0.20833764E-06
0.24655238E-07
0.38233545E-08
0.58461058E-09
0.25631464E-09
0.88690100E-09
0.14753848E-08
0.15518310E-08
0.11968788E-08
0.70540718E-09
0.30646197E-09
0.92069567E-10
0.45217330E-10
0.93794292E-10
0.16474971E-09
0.21572573E-09
0.22815164E-09
0.20538718E-09
0.16109708E-09
0.11114185E-09
0.66310325E-10
0.33511575E-10
0.14680918E-10
0.75976352E-11
0.88766997E-11
0.14945368E-10
0.22386164E-10
0.28834563E-10
0.33092154E-10
0.34566818E-10
0.33436590E-10
0.30259999E-10
0.25800414E-10
0.20714144E-10
0.15655938E-10
0.11079063E-10
0.73190776E-11
