atomic number =   41
effective nuclear charge =   41
electron count =   10
net charge =   31
basis set = approximate basis set limit (UGBS)      
exchange correlation functional = PW91PW91            
cutoff radius (picometer) =  300
number of shells =   50
prepared by = Thomas A. Manz      
prepared date = July 2010           
net magnetization =    0
density in atomic units:
0.88325273E+04
0.81754158E+02
0.57149048E+01
0.29107201E+00
0.14570343E-01
0.54296089E-03
0.17870228E-04
0.10021973E-05
0.68202944E-07
0.11713913E-07
0.54527041E-08
0.87308188E-09
0.54152510E-09
0.13860300E-08
0.13312814E-08
0.65274292E-09
0.14240902E-09
0.38000610E-10
0.13673808E-09
0.23142530E-09
0.23583308E-09
0.17075352E-09
0.90345051E-10
0.31741609E-10
0.61545409E-11
0.67156801E-11
0.19316675E-10
0.31866024E-10
0.38596577E-10
0.37909582E-10
0.31656362E-10
0.22755816E-10
0.14018488E-10
0.70495818E-11
0.26311631E-11
0.69957619E-12
0.60748954E-12
0.16390354E-11
0.31355081E-11
0.45344444E-11
0.55238596E-11
0.59910471E-11
0.59226144E-11
0.54277841E-11
0.46423460E-11
0.37219013E-11
0.27815135E-11
0.19229251E-11
0.12091307E-11
0.67496112E-12
