atomic number =   97
effective nuclear charge =   97
electron count =   68
net charge =   29
basis set = approximate basis set limit (UGBS)      
exchange correlation functional = PW91PW91            
cutoff radius (picometer) =  300
number of shells =   50
prepared by = Thomas A. Manz      
prepared date = July 2010           
net magnetization =    0
density in atomic units:
0.14006648E+06
0.32114294E+03
0.11605610E+03
0.38129684E+02
0.12190423E+02
0.50482297E+01
0.23337066E+01
0.10542955E+01
0.42830464E+00
0.16485465E+00
0.59423376E-01
0.20458110E-01
0.75608310E-02
0.27326562E-02
0.98421448E-03
0.34632758E-03
0.11526085E-03
0.39381976E-04
0.12748399E-04
0.40137425E-05
0.12501636E-05
0.38593106E-06
0.12130478E-06
0.40218428E-07
0.16437857E-07
0.11017793E-07
0.11021680E-07
0.11892668E-07
0.12056086E-07
0.11103668E-07
0.92673265E-08
0.69811987E-08
0.47492055E-08
0.28747120E-08
0.15494128E-08
0.80376084E-09
0.52822252E-09
0.58080868E-09
0.81864759E-09
0.11069924E-08
0.13531982E-08
0.15093982E-08
0.15540697E-08
0.14937251E-08
0.13509419E-08
0.11557945E-08
0.93542130E-09
0.71644923E-09
0.51805193E-09
0.35399880E-09
