atomic number =   23
effective nuclear charge =   23
electron count =   10
net charge =   13
basis set = approximate basis set limit (UGBS)      
exchange correlation functional = PW91PW91            
cutoff radius (picometer) =  300
number of shells =   50
prepared by = Thomas A. Manz      
prepared date = July 2010           
net magnetization =    0
density in atomic units:
0.14368529E+04
0.58808262E+02
0.21706589E+02
0.61839533E+01
0.15681510E+01
0.33468887E+00
0.69920450E-01
0.16055383E-01
0.35081801E-02
0.77732012E-03
0.16575761E-03
0.32822114E-04
0.72799562E-05
0.16326816E-05
0.39758481E-06
0.10537001E-06
0.27554210E-07
0.71812578E-08
0.14227403E-08
0.15537900E-09
0.43328056E-10
0.10461260E-09
0.12028442E-09
0.88779102E-10
0.46161453E-10
0.15498498E-10
0.36976793E-11
0.56208705E-11
0.13729279E-10
0.21651020E-10
0.25870729E-10
0.25703340E-10
0.22108508E-10
0.16653992E-10
0.10974510E-10
0.62070388E-11
0.28879848E-11
0.10315156E-11
0.42967274E-12
0.72787018E-12
0.15031738E-11
0.24257037E-11
0.32196320E-11
0.37481815E-11
0.39651841E-11
0.38835493E-11
0.35596068E-11
0.30701973E-11
0.24969562E-11
0.19152095E-11
