atomic number =   97
effective nuclear charge =   97
electron count =   80
net charge =   17
basis set = approximate basis set limit (UGBS)      
exchange correlation functional = PW91PW91            
cutoff radius (picometer) =  300
number of shells =   50
prepared by = Thomas A. Manz      
prepared date = July 2010           
net magnetization =    0
density in atomic units:
0.14014520E+06
0.32632941E+03
0.11999464E+03
0.38530781E+02
0.14403180E+02
0.81616249E+01
0.48193769E+01
0.26943665E+01
0.14160147E+01
0.74879676E+00
0.40137628E+00
0.22333106E+00
0.13511959E+00
0.83336599E-01
0.52593540E-01
0.33310562E-01
0.21023350E-01
0.13570770E-01
0.86647840E-02
0.55168699E-02
0.35122696E-02
0.22295725E-02
0.14184359E-02
0.90053101E-03
0.56880480E-03
0.35784778E-03
0.22505724E-03
0.14300218E-03
0.89991052E-04
0.56405730E-04
0.35568482E-04
0.22389419E-04
0.14193337E-04
0.90002350E-05
0.57287489E-05
0.36890874E-05
0.23959467E-05
0.15608598E-05
0.10150451E-05
0.66645032E-06
0.44121592E-06
0.29028689E-06
0.19174790E-06
0.12678619E-06
0.83186237E-07
0.54393517E-07
0.35099717E-07
0.22316010E-07
0.13903086E-07
0.84839131E-08
