atomic number =   42
effective nuclear charge =   42
electron count =   30
net charge =   12
basis set = approximate basis set limit (UGBS)      
exchange correlation functional = PW91PW91            
cutoff radius (picometer) =  300
number of shells =   50
prepared by = Thomas A. Manz      
prepared date = July 2010           
net magnetization =    0
density in atomic units:
0.97915166E+04
0.11553693E+03
0.41782169E+02
0.22172079E+02
0.94540920E+01
0.33583863E+01
0.12640163E+01
0.59264344E+00
0.32501987E+00
0.20029008E+00
0.12611610E+00
0.78570828E-01
0.49847271E-01
0.30812679E-01
0.18883267E-01
0.11367386E-01
0.67152181E-02
0.40355562E-02
0.23822838E-02
0.13984330E-02
0.82093303E-03
0.48125235E-03
0.28370452E-03
0.16747422E-03
0.98647477E-04
0.58041205E-04
0.34215667E-04
0.20431002E-04
0.12063163E-04
0.70726069E-05
0.41577168E-05
0.24240576E-05
0.14132194E-05
0.81657890E-06
0.46842794E-06
0.26939568E-06
0.15464741E-06
0.88017657E-07
0.49369334E-07
0.27727280E-07
0.15624993E-07
0.86862499E-08
0.48570983E-08
0.27400768E-08
0.15529339E-08
0.89678936E-09
0.52772131E-09
0.31960720E-09
0.20085521E-09
0.13300447E-09
