atomic number =   61
effective nuclear charge =   61
electron count =   28
net charge =   33
basis set = approximate basis set limit (UGBS)      
exchange correlation functional = PW91PW91            
cutoff radius (picometer) =  300
number of shells =   50
prepared by = Thomas A. Manz      
prepared date = July 2010           
net magnetization =    0
density in atomic units:
0.32546826E+05
0.18265851E+03
0.54721176E+02
0.98825693E+01
0.14112337E+01
0.15251343E+00
0.15842915E-01
0.19852377E-02
0.22058372E-03
0.23643734E-04
0.27482590E-05
0.37233409E-06
0.74288167E-07
0.24746413E-07
0.12662830E-07
0.50231268E-08
0.93594732E-09
0.45614054E-09
0.14451647E-08
0.21850652E-08
0.20936366E-08
0.14454107E-08
0.72679651E-09
0.23705468E-09
0.45762897E-10
0.74896409E-10
0.19529083E-09
0.30368777E-09
0.35478004E-09
0.33942771E-09
0.27724917E-09
0.19483837E-09
0.11692355E-09
0.56654199E-10
0.19924864E-10
0.52569984E-11
0.64077485E-11
0.16825501E-10
0.30652265E-10
0.43004010E-10
0.51317461E-10
0.54795595E-10
0.53501838E-10
0.48490979E-10
0.41032060E-10
0.32546039E-10
0.24032642E-10
0.16378770E-10
0.10113940E-10
0.55037979E-11
