atomic number =   87
effective nuclear charge =   87
electron count =   12
net charge =   75
basis set = approximate basis set limit (UGBS)      
exchange correlation functional = PW91PW91            
cutoff radius (picometer) =  300
number of shells =   50
prepared by = Thomas A. Manz      
prepared date = July 2010           
net magnetization =    0
density in atomic units:
0.99642672E+05
0.32524181E+02
0.19404995E+01
0.52313689E-01
0.11381041E-02
0.17117614E-04
0.16902004E-05
0.69701605E-06
0.53681131E-07
0.23575434E-06
0.15623205E-06
0.18938092E-07
0.11587563E-07
0.38158614E-07
0.36795893E-07
0.17249794E-07
0.30160123E-08
0.52588056E-09
0.36326742E-08
0.63732153E-08
0.64390466E-08
0.45540069E-08
0.23011990E-08
0.71264139E-09
0.66433171E-10
0.13909009E-09
0.52179328E-09
0.87877089E-09
0.10586219E-08
0.10274533E-08
0.84398438E-09
0.59273558E-09
0.35224854E-09
0.16521952E-09
0.51013239E-10
0.55496176E-11
0.95406070E-11
0.42559612E-10
0.86339276E-10
0.12557369E-09
0.15215790E-09
0.16359994E-09
0.16025563E-09
0.14529043E-09
0.12271784E-09
0.96967628E-10
0.71065542E-10
0.47814922E-10
0.28839564E-10
0.14942582E-10
