atomic number =   66
effective nuclear charge =   66
electron count =   48
net charge =   18
basis set = approximate basis set limit (UGBS)      
exchange correlation functional = PW91PW91            
cutoff radius (picometer) =  300
number of shells =   50
prepared by = Thomas A. Manz      
prepared date = July 2010           
net magnetization =    0
density in atomic units:
0.42287320E+05
0.22410928E+03
0.50908089E+02
0.18813738E+02
0.12738075E+02
0.68165569E+01
0.31286197E+01
0.14494451E+01
0.68924022E+00
0.36237997E+00
0.20635726E+00
0.12529469E+00
0.81827663E-01
0.53704906E-01
0.35467051E-01
0.23182681E-01
0.14946466E-01
0.97705526E-02
0.62869070E-02
0.40217731E-02
0.25682920E-02
0.16346904E-02
0.10428880E-02
0.66432176E-03
0.42124485E-03
0.26619964E-03
0.16823570E-03
0.10741485E-03
0.67909976E-04
0.42724925E-04
0.27005704E-04
0.17008546E-04
0.10760887E-04
0.67913188E-05
0.42870925E-05
0.27291458E-05
0.17460051E-05
0.11165242E-05
0.71015592E-06
0.45471515E-06
0.29284692E-06
0.18719670E-06
0.12013228E-06
0.77253311E-07
0.49416659E-07
0.31660953E-07
0.20169409E-07
0.12798504E-07
0.80794207E-08
0.50965805E-08
