atomic number =   97
effective nuclear charge =   97
electron count =   10
net charge =   87
basis set = approximate basis set limit (UGBS)      
exchange correlation functional = PW91PW91            
cutoff radius (picometer) =  300
number of shells =   50
prepared by = Thomas A. Manz      
prepared date = July 2010           
net magnetization =    0
density in atomic units:
0.13299341E+06
0.15220906E+01
0.54875907E-03
0.41188840E-04
0.94270281E-05
0.25473171E-05
0.18034956E-05
0.95794144E-06
0.74737677E-07
0.32376175E-06
0.21768263E-06
0.27396787E-07
0.15549844E-07
0.51889696E-07
0.50500688E-07
0.23920713E-07
0.43107491E-08
0.73053397E-09
0.48943374E-08
0.86481533E-08
0.87815737E-08
0.62414469E-08
0.31756708E-08
0.99935271E-09
0.10255647E-09
0.18857770E-09
0.70343065E-09
0.11888408E-08
0.14364967E-08
0.13976967E-08
0.11510332E-08
0.81084844E-09
0.48390836E-09
0.22872745E-09
0.72144263E-10
0.89983758E-11
0.13320982E-10
0.57452321E-10
0.11655908E-09
0.16978285E-09
0.20604954E-09
0.22183298E-09
0.21770134E-09
0.19764557E-09
0.16716289E-09
0.13225886E-09
0.97114261E-10
0.65513567E-10
0.39679270E-10
0.20711783E-10
