atomic number =   97
effective nuclear charge =   97
electron count =   18
net charge =   79
basis set = approximate basis set limit (UGBS)      
exchange correlation functional = PW91PW91            
cutoff radius (picometer) =  300
number of shells =   50
prepared by = Thomas A. Manz      
prepared date = July 2010           
net magnetization =    0
density in atomic units:
0.13772938E+06
0.10397091E+03
0.35531731E+01
0.56407485E-01
0.76055684E-03
0.13217179E-04
0.22768338E-05
0.11638321E-05
0.11312528E-06
0.38394532E-06
0.26616837E-06
0.40024506E-07
0.20158664E-07
0.61550985E-07
0.61064320E-07
0.30194613E-07
0.63991434E-08
0.13444574E-08
0.58324625E-08
0.10265766E-07
0.10587274E-07
0.77002538E-08
0.40741259E-08
0.14161636E-08
0.24869107E-09
0.26771660E-09
0.83572688E-09
0.14046930E-08
0.17125735E-08
0.16866170E-08
0.14094876E-08
0.10123584E-08
0.62215039E-09
0.31073527E-09
0.11356401E-09
0.27646675E-10
0.23965321E-10
0.70443346E-10
0.13761117E-09
0.20026503E-09
0.24451435E-09
0.26526675E-09
0.26237179E-09
0.24038052E-09
0.20537223E-09
0.16445224E-09
0.12263363E-09
0.84520717E-10
0.52899261E-10
0.29263526E-10
