atomic number =   40
effective nuclear charge =   40
electron count =    2
net charge =   38
basis set = approximate basis set limit (UGBS)      
exchange correlation functional = PW91PW91            
cutoff radius (picometer) =  300
number of shells =   50
prepared by = Thomas A. Manz      
prepared date = July 2010           
net magnetization =    0
density in atomic units:
0.70570000E+04
0.13649653E+00
0.27344962E-04
0.81589718E-06
0.17645739E-06
0.41820559E-07
0.35099099E-07
0.17140023E-07
0.14315622E-08
0.63340022E-08
0.40831334E-08
0.47045445E-09
0.31671255E-09
0.10228408E-08
0.97517749E-09
0.45202075E-09
0.76575711E-10
0.13782845E-10
0.97851324E-10
0.17046356E-09
0.17138251E-09
0.12065555E-09
0.60587778E-10
0.18489023E-10
0.15613747E-11
0.37123087E-11
0.14009003E-10
0.23525468E-10
0.28276419E-10
0.27381363E-10
0.22444857E-10
0.15724427E-10
0.93110250E-11
0.43390005E-11
0.13148239E-11
0.12371040E-12
0.24714529E-12
0.11393661E-11
0.23123361E-11
0.33593484E-11
0.40669846E-11
0.43696049E-11
0.42754736E-11
0.38726700E-11
0.32674026E-11
0.25776096E-11
0.18861165E-11
0.12662347E-11
0.76107512E-12
0.39188731E-12
