atomic number =   89
effective nuclear charge =   89
electron count =   12
net charge =   77
basis set = approximate basis set limit (UGBS)      
exchange correlation functional = PW91PW91            
cutoff radius (picometer) =  300
number of shells =   50
prepared by = Thomas A. Manz      
prepared date = July 2010            
net magnetization =    0
density in atomic units:
0.10671915E+06
0.31771589E+02
0.16496964E+01
0.38516369E-01
0.72103762E-03
0.10191309E-04
0.16715853E-05
0.74912231E-06
0.58916342E-07
0.25800676E-06
0.17061367E-06
0.20675209E-07
0.12676207E-07
0.41666866E-07
0.40165144E-07
0.18830278E-07
0.32950966E-08
0.57512289E-09
0.39630677E-08
0.69525763E-08
0.70249513E-08
0.49690456E-08
0.25115789E-08
0.77828188E-09
0.72868787E-10
0.15171180E-09
0.56893873E-09
0.95827246E-09
0.11545431E-08
0.11206386E-08
0.92075220E-09
0.64666356E-09
0.38437262E-09
0.18034650E-09
0.55730455E-10
0.61018586E-11
0.10412250E-10
0.46394610E-10
0.94138239E-10
0.13689178E-09
0.16589397E-09
0.17839431E-09
0.17478057E-09
0.15845240E-09
0.13386270E-09
0.10578220E-09
0.77527020E-10
0.52175327E-10
0.31463443E-10
0.16308612E-10
