atomic number =   49
effective nuclear charge =   49
electron count =   46
net charge =    3
basis set = approximate basis set limit (UGBS)      
exchange correlation functional = PW91PW91            
cutoff radius (picometer) =  300
number of shells =   50
prepared by = Thomas A. Manz      
prepared date = July 2010           
net magnetization =    0
density in atomic units:
0.16109406E+05
0.14210883E+03
0.58536926E+02
0.20555887E+02
0.70438442E+01
0.39110112E+01
0.30620987E+01
0.23693106E+01
0.16900553E+01
0.11497796E+01
0.74944717E+00
0.47803223E+00
0.31312913E+00
0.20347524E+00
0.13358298E+00
0.87923318E-01
0.58029950E-01
0.39404288E-01
0.26734434E-01
0.18251728E-01
0.12556181E-01
0.86790118E-02
0.60500889E-02
0.42374260E-02
0.29747838E-02
0.20940821E-02
0.14818156E-02
0.10609765E-02
0.75662491E-03
0.53917809E-03
0.38627785E-03
0.27640123E-03
0.19864817E-03
0.14256354E-03
0.10240980E-03
0.74047253E-04
0.53758027E-04
0.39030791E-04
0.28252500E-04
0.20564959E-04
0.15044761E-04
0.10957558E-04
0.80126520E-05
0.58745386E-05
0.42971369E-05
0.31517004E-05
0.23058080E-05
0.16858106E-05
0.12317547E-05
0.90201354E-06
