atomic number =  109
effective nuclear charge =  109
electron count =   30
net charge =   79
basis set = approximate basis set limit (UGBS)      
exchange correlation functional = PW91PW91            
cutoff radius (picometer) =  300
number of shells =   50
prepared by = Thomas A. Manz      
prepared date = July 2010           
net magnetization =    0
density in atomic units:
0.19275533E+06
0.16496333E+03
0.10624352E+02
0.11978951E+01
0.99514648E-01
0.50713746E-02
0.23162081E-03
0.15952808E-04
0.83572002E-06
0.67102621E-06
0.43534203E-06
0.55857907E-07
0.33045257E-07
0.10544471E-06
0.10206061E-06
0.48419174E-07
0.89362988E-08
0.17027399E-08
0.10046758E-07
0.17573450E-07
0.17819756E-07
0.12681022E-07
0.64809300E-08
0.20717374E-08
0.24555608E-09
0.40755144E-09
0.14411516E-08
0.24200242E-08
0.29208485E-08
0.28427689E-08
0.23441538E-08
0.16551274E-08
0.99198261E-09
0.47317300E-09
0.15364901E-09
0.23556049E-10
0.30550503E-10
0.11875154E-09
0.23772459E-09
0.34529055E-09
0.41904535E-09
0.45156548E-09
0.44319723E-09
0.40275683E-09
0.34110947E-09
0.27028488E-09
0.19895056E-09
0.13466746E-09
0.82008650E-10
0.43285906E-10
