atomic number =   51
effective nuclear charge =   51
electron count =   12
net charge =   39
basis set = approximate basis set limit (UGBS)      
exchange correlation functional = PW91PW91            
cutoff radius (picometer) =  300
number of shells =   50
prepared by = Thomas A. Manz      
prepared date = July 2010           
net magnetization =    0
density in atomic units:
0.18177045E+05
0.62315052E+02
0.82511320E+01
0.25933051E+01
0.60754544E+00
0.10327470E+00
0.15652711E-01
0.25581094E-02
0.38677573E-03
0.59547303E-04
0.87786666E-05
0.10992611E-05
0.14046856E-06
0.19981927E-07
0.68759913E-08
0.27978808E-08
0.56089605E-09
0.21616971E-09
0.70721951E-09
0.11049360E-08
0.10728567E-08
0.74269152E-09
0.36952152E-09
0.11333669E-09
0.12958865E-10
0.28524107E-10
0.92434511E-10
0.15035341E-09
0.17841056E-09
0.17166064E-09
0.14022489E-09
0.98092902E-10
0.58138744E-10
0.27255760E-10
0.85317985E-11
0.11925306E-11
0.20023941E-11
0.75655593E-11
0.14853362E-10
0.21340292E-10
0.25709389E-10
0.27558993E-10
0.26940573E-10
0.24401399E-10
0.20593737E-10
0.16263211E-10
0.11922567E-10
0.80319362E-11
0.48572899E-11
0.25336120E-11
