atomic number =   77
effective nuclear charge =   77
electron count =   48
net charge =   29
basis set = approximate basis set limit (UGBS)      
exchange correlation functional = PW91PW91            
cutoff radius (picometer) =  300
number of shells =   50
prepared by = Thomas A. Manz      
prepared date = July 2010           
net magnetization =    0
density in atomic units:
0.69280414E+05
0.24885797E+03
0.47629356E+02
0.26152052E+02
0.12771453E+02
0.46494908E+01
0.16922858E+01
0.74275696E+00
0.36951089E+00
0.20307307E+00
0.11289909E+00
0.61826747E-01
0.34835678E-01
0.19121058E-01
0.10437677E-01
0.56103384E-02
0.29566288E-02
0.15964480E-02
0.84484578E-03
0.44420114E-03
0.23347982E-03
0.12243936E-03
0.64644330E-04
0.34236058E-04
0.18128154E-04
0.96233880E-05
0.51426446E-05
0.28030859E-05
0.15139626E-05
0.81264994E-06
0.43774781E-06
0.23274723E-06
0.12297421E-06
0.63575655E-07
0.32067618E-07
0.15900874E-07
0.76652142E-08
0.35622374E-08
0.15932228E-08
0.73058321E-09
0.37895756E-09
0.24415031E-09
0.19552564E-09
0.17147977E-09
0.14922379E-09
0.12375179E-09
0.96103202E-10
0.69526197E-10
0.46840840E-10
0.29878631E-10
