atomic number =    7
effective nuclear charge =    7
electron count =    2
net charge =    5
basis set = approximate basis set limit (UGBS)      
exchange correlation functional = PW91PW91            
cutoff radius (picometer) =  300
number of shells =   50
prepared by = Thomas A. Manz      
prepared date = July 2010           
net magnetization =    0
density in atomic units:
0.71147369E+02
0.15640670E+02
0.38926678E+01
0.96887767E+00
0.24738459E+00
0.57503521E-01
0.13703567E-01
0.36450913E-02
0.93989872E-03
0.24646331E-03
0.62885447E-04
0.15440413E-04
0.42444181E-05
0.11549486E-05
0.31739415E-06
0.86274852E-07
0.21850736E-07
0.57121157E-08
0.13911561E-08
0.33395431E-09
0.86549275E-10
0.26291556E-10
0.93299413E-11
0.35911840E-11
0.18914995E-11
0.19441007E-11
0.25167175E-11
0.29227534E-11
0.29200060E-11
0.25192457E-11
0.18924094E-11
0.12197382E-11
0.65460842E-12
0.26185261E-12
0.57391829E-13
0.10689816E-13
0.66294619E-13
0.17310955E-12
0.28874009E-12
0.38015459E-12
0.43303937E-12
0.44514357E-12
0.42082128E-12
0.37024705E-12
0.30393748E-12
0.23321002E-12
0.16541781E-12
0.10686834E-12
0.60881625E-13
0.28766333E-13
