atomic number =   61
effective nuclear charge =   61
electron count =   36
net charge =   25
basis set = approximate basis set limit (UGBS)      
exchange correlation functional = PW91PW91            
cutoff radius (picometer) =  300
number of shells =   50
prepared by = Thomas A. Manz      
prepared date = July 2010           
net magnetization =    0
density in atomic units:
0.32722205E+05
0.19223456E+03
0.55782528E+02
0.13030411E+02
0.62316470E+01
0.35002704E+01
0.17003087E+01
0.76318020E+00
0.30967435E+00
0.12057462E+00
0.44350468E-01
0.15634326E-01
0.58948467E-02
0.21684153E-02
0.79480378E-03
0.28597252E-03
0.98589502E-04
0.35496090E-04
0.12449362E-04
0.43865730E-05
0.15781765E-05
0.57758115E-06
0.21693616E-06
0.82774186E-07
0.31875853E-07
0.12660145E-07
0.54300986E-08
0.27085931E-08
0.15590114E-08
0.10023560E-08
0.67142175E-09
0.43463255E-09
0.26094801E-09
0.13846226E-09
0.63117622E-10
0.27592368E-10
0.20388687E-10
0.30749160E-10
0.49316540E-10
0.68041531E-10
0.82166017E-10
0.89647491E-10
0.89915228E-10
0.84039491E-10
0.73692698E-10
0.60948982E-10
0.47431451E-10
0.34628467E-10
0.23557479E-10
0.14857154E-10
