atomic number =   76
effective nuclear charge =   76
electron count =   48
net charge =   28
basis set = approximate basis set limit (UGBS)      
exchange correlation functional = PW91PW91            
cutoff radius (picometer) =  300
number of shells =   50
prepared by = Thomas A. Manz      
prepared date = July 2010           
net magnetization =    0
density in atomic units:
0.66468906E+05
0.24783704E+03
0.47165539E+02
0.25568966E+02
0.12970368E+02
0.48773866E+01
0.17983452E+01
0.78655785E+00
0.38957745E+00
0.21511233E+00
0.12129024E+00
0.67779757E-01
0.39013676E-01
0.21901591E-01
0.12222830E-01
0.67106858E-02
0.36106079E-02
0.19864929E-02
0.10709949E-02
0.57357998E-03
0.30708587E-03
0.16409374E-03
0.88305373E-04
0.47680809E-04
0.25746198E-04
0.13935843E-04
0.75888543E-05
0.42096481E-05
0.23120731E-05
0.12607441E-05
0.68882559E-06
0.37116078E-06
0.19850579E-06
0.10381844E-06
0.52934190E-07
0.26482617E-07
0.12849903E-07
0.59687930E-08
0.26196640E-08
0.11293704E-08
0.51219368E-09
0.27482436E-09
0.19503485E-09
0.16514215E-09
0.14332809E-09
0.11824586E-09
0.89731077E-10
0.61825260E-10
0.38296658E-10
0.21676416E-10
