atomic number =   31
effective nuclear charge =   31
electron count =   30
net charge =    1
basis set = approximate basis set limit (UGBS)      
exchange correlation functional = PW91PW91            
cutoff radius (picometer) =  500
number of shells =  100
prepared by = Thomas A. Manz      
prepared date = July 2010           
net magnetization =    0
density in atomic units:
0.24202076E+05
0.17883066E+03
0.44890244E+02
0.15065288E+02
0.10067377E+02
0.77012563E+01
0.53936219E+01
0.34656794E+01
0.21934130E+01
0.13687217E+01
0.85523015E+00
0.55511504E+00
0.36377060E+00
0.24307430E+00
0.17181635E+00
0.12574260E+00
0.93486458E-01
0.71851224E-01
0.56489501E-01
0.44936817E-01
0.36456406E-01
0.30028328E-01
0.24804886E-01
0.20588376E-01
0.17207289E-01
0.14398345E-01
0.12060381E-01
0.10144770E-01
0.85152565E-02
0.71607716E-02
0.60359575E-02
0.50752019E-02
0.42752381E-02
0.36054067E-02
0.30392797E-02
0.25570744E-02
0.21493977E-02
0.18070693E-02
0.15227840E-02
0.12810603E-02
0.10775710E-02
0.90640952E-03
0.76159858E-03
0.64250705E-03
0.54167485E-03
0.45467980E-03
0.38239270E-03
0.32275249E-03
0.27174733E-03
0.22882325E-03
0.19271295E-03
0.16212930E-03
0.13675683E-03
0.11550773E-03
0.97529359E-04
0.82304337E-04
0.69378519E-04
0.58487560E-04
0.49348899E-04
0.41670421E-04
0.35164830E-04
0.29678482E-04
0.25070784E-04
0.21155869E-04
0.17848175E-04
0.15094711E-04
0.12762070E-04
0.10764918E-04
0.90813564E-05
0.76538190E-05
0.64626438E-05
0.54576917E-05
0.46044329E-05
0.38882558E-05
0.32779949E-05
0.27624060E-05
0.23284742E-05
0.19609690E-05
0.16522091E-05
0.13935653E-05
0.11730635E-05
0.98621365E-06
0.82843934E-06
0.69567432E-06
0.58484790E-06
0.49195904E-06
0.41321513E-06
0.34692195E-06
0.29104146E-06
0.24354941E-06
0.20406229E-06
0.17069921E-06
0.14247030E-06
0.11903737E-06
0.99282509E-07
0.82705789E-07
0.68937311E-07
0.57315123E-07
0.47549943E-07
0.39445712E-07
