atomic number =   22
effective nuclear charge =   22
electron count =    4
net charge =   18
basis set = approximate basis set limit (UGBS)      
exchange correlation functional = PW91PW91            
cutoff radius (picometer) =  300
number of shells =   50
prepared by = Thomas A. Manz      
prepared date = July 2010           
net magnetization =    0
density in atomic units:
0.12026823E+04
0.13474364E+02
0.60758023E+01
0.20833449E+01
0.58384806E+00
0.13323593E+00
0.29040782E-01
0.68720737E-02
0.15394096E-02
0.34467599E-03
0.73408526E-04
0.14543091E-04
0.32468440E-05
0.72486966E-06
0.16881076E-06
0.40603847E-07
0.92952392E-08
0.22119231E-08
0.47469173E-09
0.97475181E-10
0.24785970E-10
0.10154211E-10
0.48844717E-11
0.18397827E-11
0.55187999E-12
0.64615929E-12
0.13717909E-11
0.20574575E-11
0.23840209E-11
0.22768332E-11
0.18584663E-11
0.13052839E-11
0.78243732E-12
0.37903212E-12
0.13452676E-12
0.38554372E-13
0.48598790E-13
0.12016080E-12
0.21362736E-12
0.29614045E-12
0.35066381E-12
0.37194583E-12
0.36107228E-12
0.32536186E-12
0.27351057E-12
0.21521688E-12
0.15725592E-12
0.10561368E-12
0.63713439E-13
0.33259074E-13
