atomic number =   20
effective nuclear charge =   20
electron count =    4
net charge =   16
basis set = approximate basis set limit (UGBS)      
exchange correlation functional = PW91PW91            
cutoff radius (picometer) =  300
number of shells =   50
prepared by = Thomas A. Manz      
prepared date = July 2010           
net magnetization =    0
density in atomic units:
0.91414532E+03
0.12179758E+02
0.55166965E+01
0.23289571E+01
0.79473138E+00
0.22216797E+00
0.59234936E-01
0.16820731E-01
0.45327758E-02
0.12188659E-02
0.31404448E-03
0.76818935E-04
0.20787244E-04
0.55062651E-05
0.14618450E-05
0.38477447E-06
0.96064795E-07
0.25970419E-07
0.71320727E-08
0.21596127E-08
0.75338097E-09
0.29158129E-09
0.11482740E-09
0.39359072E-10
0.88120544E-11
0.66537910E-12
0.23971693E-11
0.65683201E-11
0.96591467E-11
0.10405245E-10
0.91070936E-11
0.66906697E-11
0.41216917E-11
0.20029564E-11
0.64889023E-12
0.74135237E-13
0.85368155E-13
0.45476351E-12
0.96777653E-12
0.14390722E-11
0.17671450E-11
0.19178418E-11
0.18894112E-11
0.17198297E-11
0.14569353E-11
0.11520537E-11
0.84416556E-12
0.56685451E-12
0.34020082E-12
0.17448648E-12
