atomic number =   43
effective nuclear charge =   43
electron count =   18
net charge =   25
basis set = approximate basis set limit (UGBS)      
exchange correlation functional = PW91PW91            
cutoff radius (picometer) =  300
number of shells =   50
prepared by = Thomas A. Manz      
prepared date = July 2010           
net magnetization =    0
density in atomic units:
0.10511594E+05
0.84507645E+02
0.20401169E+02
0.11221469E+02
0.45864301E+01
0.14086504E+01
0.39064753E+00
0.11166098E+00
0.29922497E-01
0.79650329E-02
0.20160519E-02
0.47903153E-03
0.12624974E-03
0.33191787E-04
0.90276617E-05
0.24892456E-05
0.64400768E-06
0.16727134E-06
0.37703458E-07
0.75593638E-08
0.17366817E-08
0.70735257E-09
0.35888409E-09
0.12834467E-09
0.27846911E-10
0.49966007E-10
0.13274190E-09
0.21204591E-09
0.25521821E-09
0.25231900E-09
0.21409639E-09
0.15807075E-09
0.10175934E-09
0.55462610E-10
0.24713965E-10
0.97217174E-11
0.68327340E-11
0.11738911E-10
0.20336980E-10
0.28994886E-10
0.35521974E-10
0.38993662E-10
0.39175611E-10
0.36555991E-10
0.31935191E-10
0.26254781E-10
0.20248254E-10
0.14599624E-10
0.97570060E-11
0.59889953E-11
