atomic number =   32
effective nuclear charge =   32
electron count =   30
net charge =    2
basis set = approximate basis set limit (UGBS)      
exchange correlation functional = PW91PW91            
cutoff radius (picometer) =  300
number of shells =   50
prepared by = Thomas A. Manz      
prepared date = July 2010           
net magnetization =    0
density in atomic units:
0.40895723E+04
0.96924484E+02
0.23438316E+02
0.12498726E+02
0.87183390E+01
0.52634921E+01
0.29397564E+01
0.16455594E+01
0.90958858E+00
0.52038831E+00
0.30614644E+00
0.18869931E+00
0.12695211E+00
0.88901453E-01
0.65035261E-01
0.48833579E-01
0.37323181E-01
0.29279280E-01
0.23033915E-01
0.18200245E-01
0.14429778E-01
0.11447566E-01
0.91035198E-02
0.72368830E-02
0.57420679E-02
0.45482945E-02
0.36040482E-02
0.28704186E-02
0.22744515E-02
0.17980934E-02
0.14244604E-02
0.11260251E-02
0.89174224E-03
0.70455059E-03
0.55625115E-03
0.44040012E-03
0.34925540E-03
0.27641555E-03
0.21792381E-03
0.17228338E-03
0.13651750E-03
0.10767270E-03
0.85148211E-04
0.67437344E-04
0.53309541E-04
0.42236392E-04
0.33403634E-04
0.26412821E-04
0.20883535E-04
0.16539780E-04
