atomic number =   35
effective nuclear charge =   35
electron count =   30
net charge =    5
basis set = approximate basis set limit (UGBS)      
exchange correlation functional = PW91PW91            
cutoff radius (picometer) =  300
number of shells =   50
prepared by = Thomas A. Manz      
prepared date = July 2010           
net magnetization =    0
density in atomic units:
0.54471011E+04
0.10313902E+03
0.27075098E+02
0.16389069E+02
0.10147237E+02
0.52155890E+01
0.25191529E+01
0.12585218E+01
0.63885993E+00
0.35027114E+00
0.20630354E+00
0.13143009E+00
0.91959134E-01
0.66361561E-01
0.49083408E-01
0.36480181E-01
0.27074073E-01
0.20355850E-01
0.15167808E-01
0.11261242E-01
0.83455313E-02
0.61640232E-02
0.45546861E-02
0.33575180E-02
0.24654365E-02
0.18048902E-02
0.13214266E-02
0.97403931E-03
0.71325898E-03
0.52093726E-03
0.38174263E-03
0.27912928E-03
0.20474376E-03
0.14985430E-03
0.10965001E-03
0.80595120E-04
0.59376333E-04
0.43664288E-04
0.31955609E-04
0.23471492E-04
0.17295857E-04
0.12676499E-04
0.93200442E-05
0.68672689E-05
0.50496642E-05
0.37242842E-05
0.27425187E-05
0.20200400E-05
0.14884713E-05
0.11002251E-05
