atomic number =  102
effective nuclear charge =  102
electron count =   68
net charge =   34
basis set = approximate basis set limit (UGBS)      
exchange correlation functional = PW91PW91            
cutoff radius (picometer) =  300
number of shells =   50
prepared by = Thomas A. Manz      
prepared date = July 2010           
net magnetization =    0
density in atomic units:
0.16156427E+06
0.33752472E+03
0.11999287E+03
0.33679985E+02
0.11001940E+02
0.45444922E+01
0.18677734E+01
0.73710853E+00
0.26168364E+00
0.88492855E-01
0.27996914E-01
0.84315129E-02
0.27806307E-02
0.90973498E-03
0.30095974E-03
0.97879027E-04
0.29658409E-04
0.90087542E-05
0.24691180E-05
0.62711348E-06
0.15933067E-06
0.46301462E-07
0.15753859E-07
0.46770015E-08
0.14978213E-08
0.32450791E-08
0.71839596E-08
0.10810878E-07
0.12818836E-07
0.12755373E-07
0.11030196E-07
0.83989127E-08
0.56629621E-08
0.33227137E-08
0.16805647E-08
0.78965939E-09
0.50545629E-09
0.63720085E-09
0.99313424E-09
0.13941304E-08
0.17232017E-08
0.19221036E-08
0.19682358E-08
0.18762911E-08
0.16782951E-08
0.14167700E-08
0.11280753E-08
0.84592239E-09
0.59519473E-09
0.39238701E-09
