atomic number =   50
effective nuclear charge =   50
electron count =   10
net charge =   40
basis set = approximate basis set limit (UGBS)      
exchange correlation functional = PW91PW91            
cutoff radius (picometer) =  300
number of shells =   50
prepared by = Thomas A. Manz      
prepared date = July 2010           
net magnetization =    0
density in atomic units:
0.16704400E+05
0.60473194E+02
0.17505543E+01
0.36245737E-01
0.78679359E-03
0.14050836E-04
0.24585844E-06
0.77999331E-07
0.86165439E-08
0.34499003E-07
0.21655676E-07
0.25690257E-08
0.18684210E-08
0.55873128E-08
0.52703233E-08
0.24469997E-08
0.43282414E-09
0.96303993E-10
0.54642407E-09
0.93456776E-09
0.93709329E-09
0.66131695E-09
0.33485603E-09
0.10535200E-09
0.12154134E-10
0.22726236E-10
0.78007337E-10
0.12951452E-09
0.15539685E-09
0.15065067E-09
0.12385180E-09
0.87200358E-10
0.52084302E-10
0.24721086E-10
0.79552788E-11
0.12110908E-11
0.16946676E-11
0.64405118E-11
0.12784118E-10
0.18487285E-10
0.22375336E-10
0.24065220E-10
0.23594892E-10
0.21421739E-10
0.18129911E-10
0.14354202E-10
0.10557005E-10
0.71395390E-11
0.43433837E-11
0.22882809E-11
