atomic number =   33
effective nuclear charge =   33
electron count =   10
net charge =   23
basis set = approximate basis set limit (UGBS)      
exchange correlation functional = PW91PW91            
cutoff radius (picometer) =  300
number of shells =   50
prepared by = Thomas A. Manz      
prepared date = July 2010           
net magnetization =    0
density in atomic units:
0.44161660E+04
0.86823837E+02
0.13070920E+02
0.14419245E+01
0.14837478E+00
0.12032309E-01
0.95914479E-03
0.96030039E-04
0.85048168E-05
0.73024131E-06
0.69353071E-07
0.70396884E-08
0.10975363E-08
0.95741315E-09
0.86369278E-09
0.41308473E-09
0.76917875E-10
0.11285290E-10
0.79877445E-10
0.14443173E-09
0.14854377E-09
0.10682780E-09
0.55242748E-10
0.18042835E-10
0.22794512E-11
0.32676212E-11
0.11767527E-10
0.19995838E-10
0.24327457E-10
0.23837021E-10
0.19786121E-10
0.14081169E-10
0.85334873E-11
0.41533214E-11
0.14213603E-11
0.27377658E-12
0.28447887E-12
0.99095742E-12
0.19722334E-11
0.28728595E-11
0.34995481E-11
0.37854299E-11
0.37301954E-11
0.34046245E-11
0.28972514E-11
0.23084041E-11
0.17113180E-11
0.11700084E-11
0.72334331E-12
0.39202867E-12
