atomic number =   59
effective nuclear charge =   59
electron count =   36
net charge =   23
basis set = approximate basis set limit (UGBS)      
exchange correlation functional = PW91PW91            
cutoff radius (picometer) =  300
number of shells =   50
prepared by = Thomas A. Manz      
prepared date = July 2010           
net magnetization =    0
density in atomic units:
0.29373824E+05
0.18263409E+03
0.57988232E+02
0.13762385E+02
0.60428615E+01
0.35362480E+01
0.18591915E+01
0.89554369E+00
0.38813579E+00
0.16063465E+00
0.62731750E-01
0.23481997E-01
0.93298750E-02
0.36070906E-02
0.13870450E-02
0.52363763E-03
0.19040692E-03
0.72351497E-04
0.26878257E-04
0.10018262E-04
0.37878763E-05
0.14426124E-05
0.55705044E-06
0.21592116E-06
0.83503807E-07
0.32741866E-07
0.13442759E-07
0.61336038E-08
0.31097811E-08
0.17765079E-08
0.11162675E-08
0.72392398E-09
0.46530402E-09
0.28371985E-09
0.16036086E-09
0.85026278E-10
0.46219101E-10
0.33785835E-10
0.38494218E-10
0.51632046E-10
0.66290494E-10
0.78302434E-10
0.84923832E-10
0.85589057E-10
0.80908634E-10
0.72219605E-10
0.60990407E-10
0.48796370E-10
0.36956209E-10
0.26519687E-10
