atomic number =   50
effective nuclear charge =   50
electron count =   36
net charge =   14
basis set = approximate basis set limit (UGBS)      
exchange correlation functional = PW91PW91            
cutoff radius (picometer) =  300
number of shells =   50
prepared by = Thomas A. Manz      
prepared date = July 2010           
net magnetization =    0
density in atomic units:
0.17190715E+05
0.14068500E+03
0.58337273E+02
0.19767420E+02
0.62936029E+01
0.29560888E+01
0.19685808E+01
0.13313957E+01
0.82560730E+00
0.48438463E+00
0.26751703E+00
0.14154631E+00
0.76648958E-01
0.40365919E-01
0.21189844E-01
0.11002913E-01
0.56317365E-02
0.29784606E-02
0.15527690E-02
0.80777181E-03
0.42080897E-03
0.21850079E-03
0.11391620E-03
0.59368373E-04
0.30829677E-04
0.16021744E-04
0.83841178E-05
0.44897579E-05
0.23930697E-05
0.12759448E-05
0.68817349E-06
0.36991966E-06
0.19962189E-06
0.10679094E-06
0.56612858E-07
0.30030968E-07
0.15847709E-07
0.82648164E-08
0.42437986E-08
0.22001239E-08
0.11661234E-08
0.62996719E-09
0.35896197E-09
0.21698275E-09
0.13707463E-09
0.89407121E-10
0.58103945E-10
0.36643071E-10
0.21847971E-10
0.12138718E-10
