atomic number =   79
effective nuclear charge =   79
electron count =   68
net charge =   11
basis set = approximate basis set limit (UGBS)      
exchange correlation functional = PW91PW91            
cutoff radius (picometer) =  300
number of shells =   50
prepared by = Thomas A. Manz      
prepared date = July 2010           
net magnetization =    0
density in atomic units:
0.75128430E+05
0.27393948E+03
0.73555122E+02
0.42303940E+02
0.19622511E+02
0.77577929E+01
0.35959918E+01
0.20645735E+01
0.12635722E+01
0.78931743E+00
0.47851142E+00
0.28102905E+00
0.16804628E+00
0.98021574E-01
0.57017054E-01
0.32815035E-01
0.18660808E-01
0.10893552E-01
0.62777023E-02
0.36110778E-02
0.20811243E-02
0.11979621E-02
0.69338770E-03
0.40182614E-03
0.23239075E-03
0.13439340E-03
0.78015386E-04
0.45992649E-04
0.26874901E-04
0.15634792E-04
0.91463944E-05
0.53221829E-05
0.31085958E-05
0.18076648E-05
0.10506644E-05
0.61752036E-06
0.36644107E-06
0.21882580E-06
0.13131279E-06
0.80540147E-07
0.50600033E-07
0.32233299E-07
0.21002915E-07
0.13966043E-07
0.93994119E-08
0.64042789E-08
0.43743453E-08
0.29770750E-08
0.20087030E-08
0.13371523E-08
