atomic number =  109
effective nuclear charge =  109
electron count =   36
net charge =   73
basis set = approximate basis set limit (UGBS)      
exchange correlation functional = PW91PW91            
cutoff radius (picometer) =  300
number of shells =   50
prepared by = Thomas A. Manz      
prepared date = July 2010           
net magnetization =    0
density in atomic units:
0.19282561E+06
0.19298108E+03
0.35016563E+02
0.55448203E+01
0.55883276E+00
0.35166584E-01
0.20252760E-02
0.17425451E-03
0.12179898E-04
0.91872948E-06
0.58382648E-06
0.15471818E-06
0.43148127E-07
0.11976206E-06
0.14191201E-06
0.87650683E-07
0.29760308E-07
0.73752444E-08
0.10375982E-07
0.19673655E-07
0.23149356E-07
0.19418271E-07
0.12394395E-07
0.59834409E-08
0.21424331E-08
0.97052444E-09
0.14861897E-08
0.25331934E-08
0.33715886E-08
0.36401939E-08
0.33431713E-08
0.26762019E-08
0.18883202E-08
0.11601924E-08
0.61216004E-09
0.28500430E-09
0.14916704E-09
0.15316803E-09
0.24035574E-09
0.35525352E-09
0.45845797E-09
0.52907068E-09
0.55545973E-09
0.54010213E-09
0.49131982E-09
0.42115098E-09
0.34002753E-09
0.25859700E-09
0.18441573E-09
0.12301531E-09
