atomic number =   35
effective nuclear charge =   35
electron count =   12
net charge =   23
basis set = approximate basis set limit (UGBS)      
exchange correlation functional = PW91PW91            
cutoff radius (picometer) =  300
number of shells =   50
prepared by = Thomas A. Manz      
prepared date = July 2010           
net magnetization =    0
density in atomic units:
0.54088979E+04
0.89217552E+02
0.11813839E+02
0.28131356E+01
0.14530761E+01
0.69203293E+00
0.29346025E+00
0.12156209E+00
0.46853531E-01
0.17722715E-01
0.64247032E-02
0.22423377E-02
0.83570846E-03
0.30261590E-03
0.10923811E-03
0.39043389E-04
0.13587596E-04
0.50313215E-05
0.18481147E-05
0.68886982E-06
0.26142044E-06
0.99154839E-07
0.37241474E-07
0.13402937E-07
0.44083319E-08
0.12521537E-08
0.27771593E-09
0.48609172E-10
0.25888892E-10
0.39907216E-10
0.44389267E-10
0.36589138E-10
0.23767020E-10
0.12003067E-10
0.45546926E-11
0.19329731E-11
0.29544845E-11
0.60863454E-11
0.98817230E-11
0.13116399E-10
0.15173134E-10
0.15886214E-10
0.15303111E-10
0.13744387E-10
0.11551704E-10
0.91175574E-11
0.67074584E-11
0.45628505E-11
0.28208651E-11
0.15477284E-11
