atomic number =   59
effective nuclear charge =   59
electron count =   48
net charge =   11
basis set = approximate basis set limit (UGBS)      
exchange correlation functional = PW91PW91            
cutoff radius (picometer) =  300
number of shells =   50
prepared by = Thomas A. Manz      
prepared date = July 2010           
net magnetization =    0
density in atomic units:
0.29419803E+05
0.19335840E+03
0.58611683E+02
0.16296717E+02
0.10166330E+02
0.69754715E+01
0.40557156E+01
0.21972640E+01
0.11330798E+01
0.59924227E+00
0.32846275E+00
0.19130105E+00
0.12285617E+00
0.81402600E-01
0.55435531E-01
0.37940361E-01
0.25881991E-01
0.17944498E-01
0.12292063E-01
0.83760694E-02
0.56910715E-02
0.38476905E-02
0.26007274E-02
0.17514043E-02
0.11723927E-02
0.78107422E-03
0.51984243E-03
0.34887396E-03
0.23206990E-03
0.15377450E-03
0.10239500E-03
0.68039444E-04
0.45443499E-04
0.30313455E-04
0.20244815E-04
0.13627180E-04
0.92169257E-05
0.62294116E-05
0.41892185E-05
0.28317963E-05
0.19221229E-05
0.12944614E-05
0.87346848E-06
0.58943903E-06
0.39519563E-06
0.26463798E-06
0.17578752E-06
0.11592441E-06
0.75823564E-07
0.49315119E-07
