atomic number =  107
effective nuclear charge =  107
electron count =   62
net charge =   45
basis set = approximate basis set limit (UGBS)      
exchange correlation functional = PW91PW91            
cutoff radius (picometer) =  300
number of shells =   50
prepared by = Thomas A. Manz      
prepared date = July 2010           
net magnetization =    0
density in atomic units:
0.18420312E+06
0.34953625E+03
0.11775083E+03
0.26859507E+02
0.56784344E+01
0.12800202E+01
0.32129681E+00
0.88084482E-01
0.22142183E-01
0.53414125E-02
0.12050584E-02
0.25781590E-03
0.64377615E-04
0.16886788E-04
0.47308877E-05
0.12965895E-05
0.28020921E-06
0.40823426E-07
0.12045557E-07
0.27478022E-07
0.34658139E-07
0.28525392E-07
0.17175065E-07
0.76170918E-08
0.26629778E-08
0.18904489E-08
0.33628558E-08
0.51810178E-08
0.63074230E-08
0.63564523E-08
0.55068816E-08
0.41658614E-08
0.27683933E-08
0.15873961E-08
0.77730866E-09
0.35907199E-09
0.24951358E-09
0.34439210E-09
0.54164184E-09
0.74904438E-09
0.90921398E-09
0.99651221E-09
0.10029398E-08
0.93962949E-09
0.82521967E-09
0.68307465E-09
0.53186655E-09
0.38862324E-09
0.26490135E-09
0.16791253E-09
