atomic number =   66
effective nuclear charge =   66
electron count =   36
net charge =   30
basis set = approximate basis set limit (UGBS)      
exchange correlation functional = PW91PW91            
cutoff radius (picometer) =  300
number of shells =   50
prepared by = Thomas A. Manz      
prepared date = July 2010           
net magnetization =    0
density in atomic units:
0.42213777E+05
0.21380750E+03
0.48996960E+02
0.12322845E+02
0.65901632E+01
0.31574371E+01
0.12622285E+01
0.48010898E+00
0.16739430E+00
0.56713846E-01
0.18188056E-01
0.55607832E-02
0.18451292E-02
0.60059369E-03
0.19604513E-03
0.63052001E-04
0.19264136E-04
0.61573874E-05
0.19134777E-05
0.60776267E-06
0.20543212E-06
0.74751668E-07
0.29238773E-07
0.11742655E-07
0.46327466E-08
0.18557383E-08
0.93120889E-09
0.72931078E-09
0.72261708E-09
0.70379835E-09
0.61752436E-09
0.47928528E-09
0.32884179E-09
0.19649424E-09
0.10194218E-09
0.50042470E-10
0.33194957E-10
0.40491673E-10
0.60707953E-10
0.83345164E-10
0.10159035E-09
0.11221443E-09
0.11377453E-09
0.10743254E-09
0.95148174E-10
0.79472914E-10
0.62497993E-10
0.46208874E-10
0.31956344E-10
0.20623428E-10
