atomic number =   35
effective nuclear charge =   35
electron count =   18
net charge =   17
basis set = approximate basis set limit (UGBS)      
exchange correlation functional = PW91PW91            
cutoff radius (picometer) =  300
number of shells =   50
prepared by = Thomas A. Manz      
prepared date = July 2010           
net magnetization =    0
density in atomic units:
0.54339302E+04
0.91831985E+02
0.15397716E+02
0.80680103E+01
0.52080770E+01
0.26419568E+01
0.11878573E+01
0.52526438E+00
0.21897459E+00
0.90254612E-01
0.35874590E-01
0.13849719E-01
0.57020690E-02
0.22994441E-02
0.92918868E-03
0.37204984E-03
0.14556445E-03
0.59982678E-04
0.24471028E-04
0.10095010E-04
0.42334668E-05
0.17834481E-05
0.75465272E-06
0.31528396E-06
0.12765926E-06
0.49692087E-07
0.18461844E-07
0.66473880E-08
0.21944184E-08
0.66506434E-09
0.19731455E-09
0.64497990E-10
0.28069037E-10
0.14312510E-10
0.65647236E-11
0.29318913E-11
0.34852167E-11
0.76006796E-11
0.13915723E-10
0.20577927E-10
0.26193745E-10
0.29997269E-10
0.31513032E-10
0.30865900E-10
0.28438181E-10
0.24770857E-10
0.20442660E-10
0.15960783E-10
0.11746951E-10
0.81285733E-11
