atomic number =   69
effective nuclear charge =   69
electron count =   12
net charge =   57
basis set = approximate basis set limit (UGBS)      
exchange correlation functional = PW91PW91            
cutoff radius (picometer) =  300
number of shells =   50
prepared by = Thomas A. Manz      
prepared date = July 2010           
net magnetization =    0
density in atomic units:
0.48197730E+05
0.39040890E+02
0.59594331E+01
0.58493894E+00
0.42216532E-01
0.20455620E-02
0.10588161E-03
0.81609469E-05
0.28473801E-06
0.12246193E-06
0.95822813E-07
0.11330308E-07
0.10073050E-07
0.28413773E-07
0.26203971E-07
0.11921534E-07
0.20156845E-08
0.51548571E-09
0.28435341E-08
0.47657158E-08
0.47245847E-08
0.33016561E-08
0.16508566E-08
0.50634480E-09
0.54026634E-10
0.12134389E-09
0.40721049E-09
0.66784406E-09
0.79532270E-09
0.76675144E-09
0.62714772E-09
0.43917142E-09
0.26044578E-09
0.12213960E-09
0.38204342E-10
0.52664930E-11
0.88670338E-11
0.33807304E-10
0.66494414E-10
0.95618409E-10
0.11526347E-09
0.12359683E-09
0.12085220E-09
0.10944519E-09
0.92391157E-10
0.72959569E-10
0.53492072E-10
0.36035945E-10
0.21795976E-10
0.11369543E-10
