atomic number =   30
effective nuclear charge =   30
electron count =    4
net charge =   26
basis set = approximate basis set limit (UGBS)      
exchange correlation functional = PW91PW91            
cutoff radius (picometer) =  300
number of shells =   50
prepared by = Thomas A. Manz      
prepared date = July 2010           
net magnetization =    0
density in atomic units:
0.31174146E+04
0.21433134E+02
0.51876554E+01
0.78338701E+00
0.10250442E+00
0.10525290E-01
0.10344043E-02
0.11873651E-03
0.12752619E-04
0.15396885E-05
0.20656380E-06
0.22310047E-07
0.13446116E-08
0.79607193E-09
0.10971505E-08
0.56265559E-09
0.95554412E-10
0.20633295E-10
0.13906135E-09
0.23791824E-09
0.23678215E-09
0.16506191E-09
0.81710957E-10
0.24184731E-10
0.18643578E-11
0.58193537E-11
0.20649664E-10
0.33972811E-10
0.40370922E-10
0.38783594E-10
0.31567669E-10
0.21947260E-10
0.12867565E-10
0.58981062E-11
0.17218681E-11
0.14416414E-12
0.41167273E-12
0.17425630E-11
0.34425030E-11
0.49374307E-11
0.59307967E-11
0.63363663E-11
0.61733669E-11
0.55704855E-11
0.46826683E-11
0.36800528E-11
0.26813354E-11
0.17905415E-11
0.10681329E-11
0.54342473E-12
