atomic number =   50
effective nuclear charge =   50
electron count =   12
net charge =   38
basis set = approximate basis set limit (UGBS)      
exchange correlation functional = PW91PW91            
cutoff radius (picometer) =  300
number of shells =   50
prepared by = Thomas A. Manz      
prepared date = July 2010           
net magnetization =    0
density in atomic units:
0.17050902E+05
0.64420990E+02
0.82180672E+01
0.27032502E+01
0.67573434E+00
0.12280300E+00
0.19879153E-01
0.34546421E-02
0.55651629E-03
0.90513480E-04
0.13945646E-04
0.18450640E-05
0.25791266E-06
0.37624797E-07
0.95684927E-08
0.33311707E-08
0.76916395E-09
0.29816868E-09
0.67596556E-09
0.10108142E-08
0.97494590E-09
0.67544831E-09
0.33782291E-09
0.10553861E-09
0.13895874E-10
0.27232739E-10
0.84597156E-10
0.13682624E-09
0.16217597E-09
0.15605434E-09
0.12760866E-09
0.89415295E-10
0.53141321E-10
0.25060962E-10
0.79928061E-11
0.12556131E-11
0.19240861E-11
0.69249654E-11
0.13512314E-10
0.19389696E-10
0.23358473E-10
0.25044562E-10
0.24498091E-10
0.22199470E-10
0.18755391E-10
0.14825148E-10
0.10883914E-10
0.73458279E-11
0.44565636E-11
0.23387486E-11
