atomic number =  107
effective nuclear charge =  107
electron count =   18
net charge =   89
basis set = approximate basis set limit (UGBS)      
exchange correlation functional = PW91PW91            
cutoff radius (picometer) =  300
number of shells =   50
prepared by = Thomas A. Manz      
prepared date = July 2010           
net magnetization =    0
density in atomic units:
0.18103583E+06
0.84879715E+02
0.13899822E+01
0.11058197E-01
0.86001739E-04
0.46993755E-05
0.34052939E-05
0.17312457E-05
0.14891015E-06
0.60478976E-06
0.40094255E-06
0.50934453E-07
0.30388733E-07
0.97266444E-07
0.94073989E-07
0.44545342E-07
0.81535365E-08
0.15307444E-08
0.92632426E-08
0.16217760E-07
0.16440319E-07
0.11692484E-07
0.59667595E-08
0.18988970E-08
0.21738156E-09
0.37112316E-09
0.13279898E-08
0.22328341E-08
0.26956151E-08
0.26232105E-08
0.21626492E-08
0.15260325E-08
0.91371105E-09
0.43492718E-09
0.14026828E-09
0.20529856E-10
0.27352801E-10
0.10908863E-09
0.21922662E-09
0.31873179E-09
0.38674203E-09
0.41658160E-09
0.40895226E-09
0.37164866E-09
0.31466391E-09
0.24931104E-09
0.18346064E-09
0.12409074E-09
0.75498961E-10
0.39744555E-10
