atomic number =   57
effective nuclear charge =   57
electron count =   48
net charge =    9
basis set = approximate basis set limit (UGBS)      
exchange correlation functional = PW91PW91            
cutoff radius (picometer) =  300
number of shells =   50
prepared by = Thomas A. Manz      
prepared date = July 2010           
net magnetization =    0
density in atomic units:
0.26309529E+05
0.18328566E+03
0.60384319E+02
0.16459970E+02
0.93009653E+01
0.67112651E+01
0.42056251E+01
0.24144943E+01
0.12978898E+01
0.70159280E+00
0.38622969E+00
0.22317807E+00
0.14176580E+00
0.93116313E-01
0.63167222E-01
0.43273598E-01
0.29660828E-01
0.20708047E-01
0.14306181E-01
0.98382533E-02
0.67467596E-02
0.46029738E-02
0.31382344E-02
0.21308872E-02
0.14378404E-02
0.96531084E-03
0.64723659E-03
0.43742859E-03
0.29302519E-03
0.19553179E-03
0.13109592E-03
0.87704691E-04
0.58970971E-04
0.39603423E-04
0.26625601E-04
0.18038281E-04
0.12275641E-04
0.83470204E-05
0.56465169E-05
0.38379276E-05
0.26186854E-05
0.17722671E-05
0.12014032E-05
0.81418574E-06
0.54795646E-06
0.36820973E-06
0.24531775E-06
0.16219883E-06
0.10631317E-06
0.69248479E-07
