atomic number =   52
effective nuclear charge =   52
electron count =   12
net charge =   40
basis set = approximate basis set limit (UGBS)      
exchange correlation functional = PW91PW91            
cutoff radius (picometer) =  300
number of shells =   50
prepared by = Thomas A. Manz      
prepared date = July 2010           
net magnetization =    0
density in atomic units:
0.19353609E+05
0.60271629E+02
0.82768269E+01
0.24750044E+01
0.54326910E+00
0.86357489E-01
0.12255146E-01
0.18828240E-02
0.26665861E-03
0.38803191E-04
0.54904613E-05
0.65673191E-06
0.77838649E-07
0.12341268E-07
0.62280723E-08
0.27809535E-08
0.49697912E-09
0.15919642E-09
0.71569578E-09
0.11659136E-08
0.11447990E-08
0.79590046E-09
0.39628892E-09
0.12068803E-09
0.12176409E-10
0.28500089E-10
0.97101174E-10
0.15951789E-09
0.18995391E-09
0.18306497E-09
0.14963837E-09
0.10467836E-09
0.61972830E-10
0.28962744E-10
0.89429289E-11
0.11051787E-11
0.19845709E-11
0.79476755E-11
0.15754223E-10
0.22698824E-10
0.27379857E-10
0.29351525E-10
0.28709308E-10
0.25990576E-10
0.21931693E-10
0.17312058E-10
0.12679936E-10
0.85314108E-11
0.51453429E-11
0.26710324E-11
