atomic number =  109
effective nuclear charge =  109
electron count =   62
net charge =   47
basis set = approximate basis set limit (UGBS)      
exchange correlation functional = PW91PW91            
cutoff radius (picometer) =  300
number of shells =   50
prepared by = Thomas A. Manz      
prepared date = July 2010           
net magnetization =    0
density in atomic units:
0.19353866E+06
0.35685956E+03
0.11655137E+03
0.24775570E+02
0.50807509E+01
0.11164414E+01
0.26630706E+00
0.68982333E-01
0.16363604E-01
0.37219732E-02
0.78590284E-03
0.15489687E-03
0.35700821E-04
0.88053866E-05
0.24357730E-05
0.69628027E-06
0.16401518E-06
0.29291677E-07
0.13050383E-07
0.24638370E-07
0.30479505E-07
0.26030044E-07
0.16811521E-07
0.83804528E-08
0.34009762E-08
0.19380646E-08
0.26345053E-08
0.39538124E-08
0.49418496E-08
0.51592850E-08
0.46460968E-08
0.36754482E-08
0.25827673E-08
0.16000130E-08
0.87657009E-09
0.45545731E-09
0.28911076E-09
0.30404129E-09
0.42285855E-09
0.57162158E-09
0.69930667E-09
0.77987539E-09
0.80084478E-09
0.76657131E-09
0.68943939E-09
0.58601907E-09
0.47054216E-09
0.35706196E-09
0.25537772E-09
0.17243708E-09
