atomic number =   38
effective nuclear charge =   38
electron count =   36
net charge =    2
basis set = approximate basis set limit (UGBS)      
exchange correlation functional = PW91PW91            
cutoff radius (picometer) =  300
number of shells =   50
prepared by = Thomas A. Manz      
prepared date = July 2010           
net magnetization =    0
density in atomic units:
0.70970854E+04
0.10860595E+03
0.33425209E+02
0.20256826E+02
0.10608752E+02
0.45761337E+01
0.20127037E+01
0.10767140E+01
0.69682896E+00
0.52568305E+00
0.41652039E+00
0.32983303E+00
0.26103109E+00
0.20133829E+00
0.15301746E+00
0.11398006E+00
0.83476029E-01
0.61415508E-01
0.44528604E-01
0.32085642E-01
0.23065835E-01
0.16534543E-01
0.11873933E-01
0.85192276E-02
0.60967566E-02
0.43551633E-02
0.31145900E-02
0.22461063E-02
0.16096246E-02
0.11508972E-02
0.82646182E-03
0.59250166E-03
0.42650840E-03
0.30660216E-03
0.22052925E-03
0.15956961E-03
0.11583720E-03
0.84022133E-04
0.60672181E-04
0.44002980E-04
0.32025109E-04
0.23174733E-04
0.16814427E-04
0.12219069E-04
0.88532934E-05
0.64263586E-05
0.46510545E-05
0.33618037E-05
0.24281617E-05
0.17565869E-05
