atomic number =   74
effective nuclear charge =   74
electron count =   46
net charge =   28
basis set = approximate basis set limit (UGBS)      
exchange correlation functional = PW91PW91            
cutoff radius (picometer) =  300
number of shells =   50
prepared by = Thomas A. Manz      
prepared date = July 2010           
net magnetization =    0
density in atomic units:
0.60992273E+05
0.24460461E+03
0.46352997E+02
0.23947746E+02
0.13219827E+02
0.52488570E+01
0.18185459E+01
0.63410592E+00
0.21044025E+00
0.70458136E-01
0.22872370E-01
0.71563856E-02
0.24444261E-02
0.83127525E-03
0.28915764E-03
0.10077019E-03
0.33805783E-04
0.11786492E-04
0.39573829E-05
0.13296714E-05
0.46193955E-06
0.16822268E-06
0.65109852E-07
0.26227854E-07
0.10811650E-07
0.47546656E-08
0.25099347E-08
0.17401306E-08
0.14169886E-08
0.11727261E-08
0.90650204E-09
0.62571071E-09
0.37671577E-09
0.18832670E-09
0.74579565E-10
0.29591728E-10
0.33678848E-10
0.66384585E-10
0.10946273E-09
0.14765417E-09
0.17293328E-09
0.18289896E-09
0.17761290E-09
0.16065434E-09
0.13598521E-09
0.10813243E-09
0.80291065E-10
0.55285967E-10
0.34809530E-10
0.19711949E-10
