atomic number =   71
effective nuclear charge =   71
electron count =   12
net charge =   59
basis set = approximate basis set limit (UGBS)      
exchange correlation functional = PW91PW91            
cutoff radius (picometer) =  300
number of shells =   50
prepared by = Thomas A. Manz      
prepared date = July 2010           
net magnetization =    0
density in atomic units:
0.52807473E+05
0.37992424E+02
0.54436092E+01
0.46368241E+00
0.29436704E-01
0.12366093E-02
0.58049780E-04
0.46267887E-05
0.15274613E-06
0.14437352E-06
0.10714954E-06
0.12938395E-07
0.97874553E-08
0.29279027E-07
0.27509843E-07
0.12678358E-07
0.21836510E-08
0.50113230E-09
0.29063449E-08
0.49406839E-08
0.49299542E-08
0.34604577E-08
0.17379188E-08
0.53629001E-09
0.56524951E-10
0.12183446E-09
0.41850948E-09
0.69100214E-09
0.82572016E-09
0.79772794E-09
0.65357386E-09
0.45818807E-09
0.27210301E-09
0.12780244E-09
0.40032689E-10
0.53860241E-11
0.88764759E-11
0.34678808E-10
0.68662485E-10
0.99001286E-10
0.11949793E-09
0.12826019E-09
0.12548659E-09
0.11369915E-09
0.96015841E-10
0.75867861E-10
0.55622281E-10
0.37482146E-10
0.22670527E-10
0.11824846E-10
