atomic number =   77
effective nuclear charge =   77
electron count =   62
net charge =   15
basis set = approximate basis set limit (UGBS)      
exchange correlation functional = PW91PW91            
cutoff radius (picometer) =  300
number of shells =   50
prepared by = Thomas A. Manz      
prepared date = July 2010           
net magnetization =    0
density in atomic units:
0.69284867E+05
0.26722638E+03
0.67870285E+02
0.39567486E+02
0.20025383E+02
0.80602055E+01
0.32733977E+01
0.15054070E+01
0.73053086E+00
0.37751544E+00
0.19618674E+00
0.10118944E+00
0.54625619E-01
0.29066652E-01
0.15532198E-01
0.82236892E-02
0.42844629E-02
0.22971849E-02
0.12123720E-02
0.63915260E-03
0.33850124E-03
0.17956177E-03
0.96088472E-04
0.51577797E-04
0.27654447E-04
0.14837688E-04
0.80061182E-05
0.44057647E-05
0.24076196E-05
0.13132312E-05
0.72287855E-06
0.39610393E-06
0.21770168E-06
0.11857701E-06
0.64004503E-07
0.34546346E-07
0.18545263E-07
0.98500053E-08
0.51707292E-08
0.27628946E-08
0.15324355E-08
0.88857022E-09
0.55663346E-09
0.37463446E-09
0.26328303E-09
0.18847691E-09
0.13304126E-09
0.90843541E-10
0.59315462E-10
0.37314107E-10
