atomic number =   41
effective nuclear charge =   41
electron count =   36
net charge =    5
basis set = approximate basis set limit (UGBS)      
exchange correlation functional = PW91PW91            
cutoff radius (picometer) =  300
number of shells =   50
prepared by = Thomas A. Manz      
prepared date = July 2010           
net magnetization =    0
density in atomic units:
0.90639268E+04
0.11414984E+03
0.40705551E+02
0.22359268E+02
0.98783178E+01
0.37627304E+01
0.17089572E+01
0.10731747E+01
0.79229122E+00
0.61216116E+00
0.45957914E+00
0.33191207E+00
0.23795635E+00
0.16542356E+00
0.11356818E+00
0.76577097E-01
0.50833799E-01
0.34160815E-01
0.22634326E-01
0.14934533E-01
0.98560732E-02
0.64985384E-02
0.43052211E-02
0.28563535E-02
0.18926781E-02
0.12539387E-02
0.83268544E-03
0.55901275E-03
0.37242594E-03
0.24718486E-03
0.16471335E-03
0.10932678E-03
0.72766103E-04
0.48235514E-04
0.31914231E-04
0.21224014E-04
0.14142051E-04
0.93923591E-05
0.61904971E-05
0.40935483E-05
0.27153760E-05
0.17841008E-05
0.11744423E-05
0.77355281E-06
0.50667586E-06
0.33234386E-06
0.21702557E-06
0.14161353E-06
0.92394224E-07
0.60640012E-07
